wavelength      k_l
   0.00000     100.
   610.00000     28.59271
   620.00000     28.40726
   630.00000     28.22180
   640.00000     28.03635
   650.00000     27.85089
   660.00000     27.66544
   670.00000     27.47999
   680.00000     27.29453
   690.00000     27.10908
   700.00000     26.92362
   710.00000     26.73817
   720.00000     26.55271
   730.00000     26.36726
   740.00000     26.18181
   750.00000     25.99635
   760.00000     25.81090
   770.00000     25.62544
   780.00000     25.43999
   790.00000     25.25453
   800.00000     25.06908
   810.00000     24.88363
   820.00000     24.69817
   830.00000     24.51272
   840.00000     24.32726
   850.00000     24.14181
   860.00000     23.95635
   870.00000     23.77090
   880.00000     23.58545
   890.00000     23.39999
   900.00000     23.21454
   910.00000     23.02908
   920.00000     22.84363
   930.00000     22.65817
   940.00000     22.47272
   950.00000     22.28727
   960.00000     22.10181
   970.00000     21.91636
   980.00000     21.73090
   990.00000     21.54545
  1000.00000     21.35999
  1010.00000     21.17454
  1020.00000     20.98908
  1030.00000     20.80363
  1040.00000     20.61818
  1050.00000     20.43272
  1060.00000     20.24727
  1070.00000     20.06181
  1080.00000     19.87636
  1090.00000     19.69090
  1100.00000     19.50545
  1110.00000     19.32000
  1120.00000     19.13454
  1130.00000     18.94909
  1140.00000     18.76363
  1150.00000     18.57818
  1160.00000     18.39272
  1170.00000     18.20727
  1180.00000     18.02182
  1190.00000     17.83636
  1200.00000     17.65091
  1210.00000     17.46545
  1220.00000     17.28000
  1230.00000     17.09454
  1240.00000     16.90909
  1250.00000     16.72364
  1260.00000     16.53818
  1270.00000     16.35273
  1280.00000     16.16727
  1290.00000     15.98182
  1300.00000     15.79636
  1310.00000     15.61091
  1320.00000     15.42546
  1330.00000     15.24000
  1340.00000     15.05636
  1350.00000     14.87273
  1360.00000     14.68909
  1370.00000     14.50546
  1380.00000     14.32182
  1390.00000     14.15900
  1400.00000     14.01700
  1410.00000     13.87500
  1420.00000     13.73300
  1430.00000     13.59100
  1440.00000     13.43273
  1450.00000     13.25818
  1460.00000     13.08364
  1470.00000     12.90909
  1480.00000     12.73455
  1490.00000     12.56000
  1500.00000     12.45818
  1510.00000     12.35636
  1520.00000     12.25455
  1530.00000     12.15273
  1540.00000     12.05091
  1550.00000     11.97800
  1560.00000     11.93400
  1570.00000     11.89000
  1580.00000     11.84600
  1590.00000     11.80200
  1600.00000     11.72519
  1610.00000     11.61558
  1620.00000     11.50596
  1630.00000     11.39635
  1640.00000     11.28673
  1650.00000     11.18283
  1660.00000     11.09226
  1670.00000     11.00170
  1680.00000     10.91113
  1690.00000     10.82057
  1700.00000     10.73000
  1710.00000     10.67545
  1720.00000     10.62091
  1730.00000     10.56636
  1740.00000     10.51182
  1750.00000     10.45727
  1760.00000     10.38091
  1770.00000     10.28273
  1780.00000     10.18455
  1790.00000     10.08636
  1800.00000      9.98818
  1810.00000      9.89000
  1820.00000      9.83600
  1830.00000      9.78200
  1840.00000      9.72800
  1850.00000      9.67400
  1860.00000      9.62000
  1870.00000      9.59200
  1880.00000      9.56400
  1890.00000      9.53600
  1900.00000      9.50800
  1910.00000      9.48000
  1920.00000      9.43778
  1930.00000      9.39556
  1940.00000      9.35333
  1950.00000      9.31111
  1960.00000      9.26889
  1970.00000      9.22667
  1980.00000      9.18444
  1990.00000      9.14222
  2000.00000      9.10000
  2010.00000      9.05391
  2020.00000      9.00783
  2030.00000      8.96174
  2040.00000      8.91565
  2050.00000      8.86957
  2060.00000      8.82348
  2070.00000      8.77739
  2080.00000      8.73130
  2090.00000      8.68522
  2100.00000      8.63913
  2110.00000      8.59304
  2120.00000      8.54381
  2130.00000      8.49143
  2140.00000      8.43905
  2150.00000      8.38667
  2160.00000      8.33429
  2170.00000      8.28191
  2180.00000      8.22952
  2190.00000      8.17714
  2200.00000      8.12476
  2210.00000      8.07238
  2220.00000      8.02000
  2230.00000      7.95304
  2240.00000      7.88609
  2250.00000      7.81913
  2260.00000      7.75217
  2270.00000      7.68522
  2280.00000      7.61826
  2290.00000      7.55130
  2300.00000      7.48435
  2310.00000      7.41739
  2320.00000      7.35044
  2330.00000      7.28348
  2340.00000      7.23682
  2350.00000      7.21045
  2360.00000      7.18409
  2370.00000      7.15773
  2380.00000      7.13136
  2390.00000      7.10500
  2400.00000      7.07864
  2410.00000      7.05227
  2420.00000      7.02591
  2430.00000      6.99955
  2440.00000      6.97318
  2450.00000      6.94429
  2460.00000      6.91286
  2470.00000      6.88143
  2480.00000      6.85000
  2490.00000      6.81857
  2500.00000      6.78714
  2510.00000      6.75571
  2520.00000      6.72429
  2530.00000      6.69286
  2540.00000      6.66143
  2550.00000      6.63000
  2560.00000      6.59348
  2570.00000      6.55696
  2580.00000      6.52043
  2590.00000      6.48391
  2600.00000      6.44739
  2610.00000      6.41087
  2620.00000      6.37435
  2630.00000      6.33783
  2640.00000      6.30130
  2650.00000      6.26478
  2660.00000      6.22826
  2670.00000      6.19496
  2680.00000      6.16487
  2690.00000      6.13478
  2700.00000      6.10469
  2710.00000      6.07460
  2720.00000      6.04451
  2730.00000      6.01442
  2740.00000      5.98434
  2750.00000      5.95425
  2760.00000      5.92416
  2770.00000      5.89407
  2780.00000      5.86732
  2790.00000      5.85393
  2800.00000      5.84054
  2810.00000      5.82714
  2820.00000      5.81375
  2830.00000      5.80036
  2840.00000      5.78696
  2850.00000      5.77357
  2860.00000      5.76018
  2870.00000      5.74679
  2880.00000      5.73339
  2890.00000      5.72000
  2900.00000      5.68667
  2910.00000      5.65333
  2920.00000      5.62000
  2930.00000      5.58667
  2940.00000      5.55333
  2950.00000      5.52000
  2960.00000      5.48667
  2970.00000      5.45333
  2980.00000      5.42000
  2990.00000      5.38667
  3000.00000      5.35364
  3010.00000      5.32091
  3020.00000      5.28818
  3030.00000      5.25545
  3040.00000      5.22273
  3050.00000      5.19000
  3060.00000      5.15727
  3070.00000      5.12455
  3080.00000      5.09182
  3090.00000      5.05909
  3100.00000      5.02636
  3110.00000      5.00599
  3120.00000      4.99798
  3130.00000      4.98997
  3140.00000      4.98195
  3150.00000      4.97394
  3160.00000      4.96593
  3170.00000      4.95791
  3180.00000      4.94990
  3190.00000      4.94189
  3200.00000      4.93387
  3210.00000      4.92586
  3220.00000      4.91785
  3230.00000      4.90983
  3240.00000      4.90182
  3250.00000      4.89381
  3260.00000      4.88579
  3270.00000      4.87778
  3280.00000      4.86977
  3290.00000      4.86175
  3300.00000      4.85374
  3310.00000      4.84573
  3320.00000      4.83771
  3330.00000      4.82970
  3340.00000      4.82169
  3350.00000      4.81367
  3360.00000      4.80566
  3370.00000      4.79765
  3380.00000      4.78963
  3390.00000      4.78162
  3400.00000      4.77361
  3410.00000      4.76559
  3420.00000      4.75758
  3430.00000      4.74957
  3440.00000      4.74155
  3450.00000      4.73354
  3460.00000      4.72553
  3470.00000      4.71751
  3480.00000      4.70950
  3490.00000      4.70149
  3500.00000      4.69347
  3510.00000      4.68546
  3520.00000      4.67745
  3530.00000      4.66943
  3540.00000      4.66142
  3550.00000      4.65341
  3560.00000      4.64539
  3570.00000      4.63738
  3580.00000      4.62937
  3590.00000      4.62135
  3600.00000      4.61334
  3610.00000      4.60533
  3620.00000      4.59731
  3630.00000      4.58930
  3640.00000      4.58129
  3650.00000      4.57327
  3660.00000      4.56526
  3670.00000      4.55725
  3680.00000      4.54923
  3690.00000      4.54122
  3700.00000      4.53321
  3710.00000      4.52118
  3720.00000      4.50648
  3730.00000      4.49178
  3740.00000      4.47708
  3750.00000      4.46238
  3760.00000      4.44768
  3770.00000      4.43298
  3780.00000      4.41828
  3790.00000      4.40358
  3800.00000      4.38887
  3810.00000      4.37417
  3820.00000      4.35947
  3830.00000      4.34477
  3840.00000      4.33007
  3850.00000      4.31537
  3860.00000      4.30067
  3870.00000      4.28597
  3880.00000      4.27127
  3890.00000      4.25657
  3900.00000      4.24187
  3910.00000      4.22717
  3920.00000      4.21247
  3930.00000      4.19777
  3940.00000      4.18307
  3950.00000      4.16837
  3960.00000      4.15367
  3970.00000      4.13897
  3980.00000      4.12426
  3990.00000      4.10956
  4000.00000      4.09486
  4010.00000      4.08016
  4020.00000      4.06546
  4030.00000      4.05076
  4040.00000      4.03606
  4050.00000      4.02136
  4060.00000      4.00666
  4070.00000      3.99196
  4080.00000      3.97726
  4090.00000      3.96256
  4100.00000      3.94786
  4110.00000      3.93316
  4120.00000      3.91846
  4130.00000      3.90376
  4140.00000      3.88906
  4150.00000      3.87436
  4160.00000      3.85966
  4170.00000      3.84495
  4180.00000      3.83025
  4190.00000      3.81555
  4200.00000      3.80085
  4210.00000      3.78615
  4220.00000      3.77145
  4230.00000      3.75675
  4240.00000      3.74205
  4250.00000      3.72735
  4260.00000      3.71517
  4270.00000      3.70552
  4280.00000      3.69587
  4290.00000      3.68622
  4300.00000      3.67656
  4310.00000      3.66691
  4320.00000      3.65726
  4330.00000      3.64761
  4340.00000      3.63795
  4350.00000      3.62830
  4360.00000      3.61865
  4370.00000      3.60900
  4380.00000      3.59934
  4390.00000      3.58969
  4400.00000      3.58004
  4410.00000      3.57039
  4420.00000      3.56073
  4430.00000      3.55108
  4440.00000      3.54143
  4450.00000      3.53178
  4460.00000      3.52212
  4470.00000      3.51247
  4480.00000      3.50282
  4490.00000      3.49317
  4500.00000      3.48351
  4510.00000      3.47386
  4520.00000      3.46421
  4530.00000      3.45456
  4540.00000      3.44490
  4550.00000      3.43525
  4560.00000      3.42560
  4570.00000      3.41595
  4580.00000      3.40629
  4590.00000      3.39664
  4600.00000      3.38699
  4610.00000      3.37734
  4620.00000      3.36768
  4630.00000      3.35803
  4640.00000      3.34838
  4650.00000      3.33873
  4660.00000      3.32907
  4670.00000      3.31942
  4680.00000      3.30977
  4690.00000      3.30012
  4700.00000      3.29046
  4710.00000      3.28081
  4720.00000      3.27116
  4730.00000      3.26151
  4740.00000      3.25185
  4750.00000      3.24220
  4760.00000      3.23255
  4770.00000      3.22290
  4780.00000      3.21324
  4790.00000      3.20359
  4800.00000      3.19394
  4810.00000      3.18429
  4820.00000      3.17463
  4830.00000      3.16498
  4840.00000      3.15533
  4850.00000      3.14568
  4860.00000      3.13602
  4870.00000      3.12637
  4880.00000      3.11672
  4890.00000      3.10707
  4900.00000      3.09741
  4910.00000      3.08776
  4920.00000      3.07811
  4930.00000      3.06846
  4940.00000      3.05880
  4950.00000      3.04915
  4960.00000      3.03950
  4970.00000      3.02985
  4980.00000      3.02019
  4990.00000      3.01054
  5000.00000      3.00089
  5010.00000      2.99124
  5020.00000      2.98158
  5030.00000      2.97193
  5040.00000      2.96228
  5050.00000      2.95263
  5060.00000      2.94297
  5070.00000      2.93332
  5080.00000      2.92367
  5090.00000      2.91402
  5100.00000      2.90436
  5110.00000      2.89471
  5120.00000      2.88506
  5130.00000      2.87541
  5140.00000      2.86575
  5150.00000      2.85610
  5160.00000      2.84645
  5170.00000      2.83680
  5180.00000      2.82714
  5190.00000      2.81749
  5200.00000      2.80784
  5210.00000      2.79819
  5220.00000      2.78853
  5230.00000      2.77888
  5240.00000      2.76923
  5250.00000      2.75958
  5260.00000      2.74992
  5270.00000      2.74027
  5280.00000      2.73062
  5290.00000      2.72097
  5300.00000      2.71748
  5310.00000      2.71468
  5320.00000      2.71187
  5330.00000      2.70907
  5340.00000      2.70627
  5350.00000      2.70347
  5360.00000      2.70067
  5370.00000      2.69786
  5380.00000      2.69506
  5390.00000      2.69226
  5400.00000      2.68946
  5410.00000      2.68666
  5420.00000      2.68385
  5430.00000      2.68105
  5440.00000      2.67825
  5450.00000      2.67545
  5460.00000      2.67265
  5470.00000      2.66984
  5480.00000      2.66704
  5490.00000      2.66424
  5500.00000      2.66144
  5510.00000      2.65864
  5520.00000      2.65583
  5530.00000      2.65303
  5540.00000      2.65023
  5550.00000      2.64743
  5560.00000      2.64462
  5570.00000      2.64182
  5580.00000      2.63902
  5590.00000      2.63622
  5600.00000      2.63342
  5610.00000      2.63061
  5620.00000      2.62781
  5630.00000      2.62501
  5640.00000      2.62221
  5650.00000      2.61941
  5660.00000      2.61660
  5670.00000      2.61380
  5680.00000      2.61100
  5690.00000      2.60820
  5700.00000      2.60540
  5710.00000      2.60259
  5720.00000      2.59979
  5730.00000      2.59699
  5740.00000      2.59419
  5750.00000      2.59139
  5760.00000      2.58858
  5770.00000      2.58578
  5780.00000      2.58298
  5790.00000      2.58018
  5800.00000      2.57738
  5810.00000      2.57457
  5820.00000      2.57177
  5830.00000      2.56897
  5840.00000      2.56617
  5850.00000      2.56337
  5860.00000      2.56056
  5870.00000      2.55776
  5880.00000      2.55496
  5890.00000      2.55216
  5900.00000      2.54936
  5910.00000      2.54655
  5920.00000      2.54375
  5930.00000      2.54095
  5940.00000      2.53815
  5950.00000      2.53534
  5960.00000      2.53254
  5970.00000      2.52974
  5980.00000      2.52694
  5990.00000      2.52414
  6000.00000      2.52133
  6010.00000      2.51853
  6020.00000      2.51573
  6030.00000      2.51293
  6040.00000      2.51013
  6050.00000      2.50732
  6060.00000      2.50452
  6070.00000      2.50172
  6080.00000      2.49892
  6090.00000      2.49612
  6100.00000      2.49331
  6110.00000      2.49051
  6120.00000      2.48771
  6130.00000      2.48491
  6140.00000      2.48211
  6150.00000      2.47930
  6160.00000      2.47650
  6170.00000      2.47370
  6180.00000      2.47090
  6190.00000      2.46810
  6200.00000      2.46529
  6210.00000      2.46249
  6220.00000      2.45969
  6230.00000      2.45689
  6240.00000      2.45409
  6250.00000      2.45128
  6260.00000      2.44848
  6270.00000      2.44568
  6280.00000      2.44288
  6290.00000      2.44007
  6300.00000      2.43727
  6310.00000      2.43447
  6320.00000      2.43167
  6330.00000      2.42887
  6340.00000      2.42606
  6350.00000      2.42326
  6360.00000      2.42046
  6370.00000      2.41766
  6380.00000      2.41486
  6390.00000      2.41205
  6400.00000      2.40925
  6410.00000      2.40645
  6420.00000      2.40365
  6430.00000      2.40085
  6440.00000      2.39804
  6450.00000      2.39524
  6460.00000      2.39244
  6470.00000      2.38964
  6480.00000      2.38684
  6490.00000      2.38403
  6500.00000      2.38123
  6510.00000      2.37843
  6520.00000      2.37563
  6530.00000      2.37283
  6540.00000      2.37002
  6550.00000      2.36722
  6560.00000      2.36442
  6570.00000      2.36162
  6580.00000      2.35882
  6590.00000      2.35601
  6600.00000      2.35321
  6610.00000      2.35041
  6620.00000      2.34761
  6630.00000      2.34481
  6640.00000      2.34200
  6650.00000      2.33920
  6660.00000      2.33640
  6670.00000      2.33360
  6680.00000      2.33079
  6690.00000      2.32799
  6700.00000      2.32519
  6710.00000      2.32239
  6720.00000      2.31959
  6730.00000      2.31678
  6740.00000      2.31398
  6750.00000      2.31118
  6760.00000      2.30838
  6770.00000      2.30558
  6780.00000      2.30277
  6790.00000      2.29997
  6800.00000      2.29717
  6810.00000      2.29437
  6820.00000      2.29157
  6830.00000      2.28876
  6840.00000      2.28596
  6850.00000      2.28316
  6860.00000      2.28036
  6870.00000      2.27756
  6880.00000      2.27475
  6890.00000      2.27195
  6900.00000      2.26915
  6910.00000      2.26635
  6920.00000      2.26355
  6930.00000      2.26074
  6940.00000      2.25794
  6950.00000      2.25514
  6960.00000      2.25234
  6970.00000      2.24954
  6980.00000      2.24673
  6990.00000      2.24393
  7000.00000      2.24113
  7010.00000      2.23833
  7020.00000      2.23553
  7030.00000      2.23272
  7040.00000      2.22992
  7050.00000      2.22712
  7060.00000      2.22432
  7070.00000      2.22151
  7080.00000      2.21871
  7090.00000      2.21591
  7100.00000      2.21311
  7110.00000      2.21031
  7120.00000      2.20750
  7130.00000      2.20470
  7140.00000      2.20190
  7150.00000      2.19910
  7160.00000      2.19630
  7170.00000      2.19349
  7180.00000      2.19069
  7190.00000      2.18789
  7200.00000      2.18509
  7210.00000      2.18229
  7220.00000      2.17948
  7230.00000      2.17668
  7240.00000      2.17388
  7250.00000      2.17108
  7260.00000      2.16828
  7270.00000      2.16547
  7280.00000      2.16267
  7290.00000      2.15987
  7300.00000      2.15707
  7310.00000      2.15427
  7320.00000      2.15146
  7330.00000      2.14866
  7340.00000      2.14586
  7350.00000      2.14306
  7360.00000      2.14026
  7370.00000      2.13745
  7380.00000      2.13465
  7390.00000      2.13185
  7400.00000      2.12905
  7410.00000      2.12625
  7420.00000      2.12344
  7430.00000      2.12064
  7440.00000      2.11784
  7450.00000      2.11504
  7460.00000      2.11223
  7470.00000      2.10943
  7480.00000      2.10663
  7490.00000      2.10383
  7500.00000      2.10103
  7510.00000      2.09822
  7520.00000      2.09542
  7530.00000      2.09262
  7540.00000      2.08982
  7550.00000      2.08702
  7560.00000      2.08421
  7570.00000      2.08141
  7580.00000      2.07861
  7590.00000      2.07581
  7600.00000      2.07301
  7610.00000      2.07020
  7620.00000      2.06740
  7630.00000      2.06460
  7640.00000      2.06180
  7650.00000      2.05900
  7660.00000      2.05619
  7670.00000      2.05339
  7680.00000      2.05059
  7690.00000      2.04779
  7700.00000      2.04499
  7710.00000      2.04218
  7720.00000      2.03938
  7730.00000      2.03658
  7740.00000      2.03378
  7750.00000      2.03098
  7760.00000      2.02817
  7770.00000      2.02537
  7780.00000      2.02257
  7790.00000      2.01977
  7800.00000      2.01696
  7810.00000      2.01416
  7820.00000      2.01136
  7830.00000      2.00856
  7840.00000      2.00576
  7850.00000      2.00295
  7860.00000      2.00015
  7870.00000      1.99735
  7880.00000      1.99455
  7890.00000      1.99175
  7900.00000      1.98894
  7910.00000      1.98614
  7920.00000      1.98334
  7930.00000      1.98054
  7940.00000      1.97774
  7950.00000      1.97493
  7960.00000      1.97213
  7970.00000      1.96933
  7980.00000      1.96653
  7990.00000      1.96373
  8000.00000      1.96092
  8010.00000      1.95812
  8020.00000      1.95532
  8030.00000      1.95252
  8040.00000      1.94972
  8050.00000      1.94691
  8060.00000      1.94411
  8070.00000      1.94131
  8080.00000      1.93851
  8090.00000      1.93571
  8100.00000      1.93290
  8110.00000      1.93010
  8120.00000      1.92730
  8130.00000      1.92450
  8140.00000      1.92170
  8150.00000      1.91889
  8160.00000      1.91609
  8170.00000      1.91329
  8180.00000      1.91049
  8190.00000      1.90768
  8200.00000      1.90488
  8210.00000      1.90208
  8220.00000      1.89928
  8230.00000      1.89648
  8240.00000      1.89367
  8250.00000      1.89087
  8260.00000      1.88807
  8270.00000      1.88527
  8280.00000      1.88247
  8290.00000      1.87966
  8300.00000      1.87686
  8310.00000      1.87406
  8320.00000      1.87126
  8330.00000      1.86846
  8340.00000      1.86565
  8350.00000      1.86285
  8360.00000      1.86005
  8370.00000      1.85725
  8380.00000      1.85445
  8390.00000      1.85164
  8400.00000      1.84884
  8410.00000      1.84604
  8420.00000      1.84324
  8430.00000      1.84044
  8440.00000      1.83763
  8450.00000      1.83483
  8460.00000      1.83203
  8470.00000      1.82923
  8480.00000      1.82643
  8490.00000      1.82362
  8500.00000      1.82082
  8510.00000      1.81802
  8520.00000      1.81522
  8530.00000      1.81242
  8540.00000      1.80961
  8550.00000      1.80681
  8560.00000      1.80401
  8570.00000      1.80121
  8580.00000      1.79840
  8590.00000      1.79560
  8600.00000      1.79280
  8610.00000      1.79000
  8620.00000      1.78720
  8630.00000      1.78439
  8640.00000      1.78159
  8650.00000      1.77879
  8660.00000      1.77599
  8670.00000      1.77319
  8680.00000      1.77038
  8690.00000      1.76758
  8700.00000      1.76478
  8710.00000      1.76198
  8720.00000      1.75918
  8730.00000      1.75637
  8740.00000      1.75357
  8750.00000      1.75077
  8760.00000      1.74797
  8770.00000      1.74517
  8780.00000      1.74236
  8790.00000      1.73956
  8800.00000      1.73676
  8810.00000      1.73396
  8820.00000      1.73116
  8830.00000      1.72835
  8840.00000      1.72555
  8850.00000      1.72275
  8860.00000      1.71995
  8870.00000      1.71715
  8880.00000      1.71434
  8890.00000      1.71154
  8900.00000      1.70874
  8910.00000      1.70594
  8920.00000      1.70314
  8930.00000      1.70033
  8940.00000      1.69753
  8950.00000      1.69473
  8960.00000      1.69193
  8970.00000      1.68912
  8980.00000      1.68632
  8990.00000      1.68352
  9000.00000      1.68072
  9010.00000      1.67792
  9020.00000      1.67511
  9030.00000      1.67231
  9040.00000      1.66951
  9050.00000      1.66671
  9060.00000      1.66391
  9070.00000      1.66110
  9080.00000      1.65830
  9090.00000      1.65550
  9100.00000      1.65270
  9110.00000      1.64990
  9120.00000      1.64709
  9130.00000      1.64429
  9140.00000      1.64149
  9150.00000      1.63869
  9160.00000      1.63589
  9170.00000      1.63308
  9180.00000      1.63028
  9190.00000      1.62748
  9200.00000      1.62468
  9210.00000      1.62188
  9220.00000      1.61907
  9230.00000      1.61627
  9240.00000      1.61347
  9250.00000      1.61067
  9260.00000      1.60787
  9270.00000      1.60506
  9280.00000      1.60226
  9290.00000      1.59946
  9300.00000      1.59666
  9310.00000      1.59385
  9320.00000      1.59105
  9330.00000      1.58825
  9340.00000      1.58545
  9350.00000      1.58265
  9360.00000      1.57984
  9370.00000      1.57704
  9380.00000      1.57424
  9390.00000      1.57144
  9400.00000      1.56864
  9410.00000      1.56583
  9420.00000      1.56303
  9430.00000      1.56023
  9440.00000      1.55743
  9450.00000      1.55463
  9460.00000      1.55182
  9470.00000      1.54902
  9480.00000      1.54622
  9490.00000      1.54342
  9500.00000      1.54062
  9510.00000      1.53781
  9520.00000      1.53501
  9530.00000      1.53221
  9540.00000      1.52941
  9550.00000      1.52661
  9560.00000      1.52380
  9570.00000      1.52100
  9580.00000      1.51820
  9590.00000      1.51540
  9600.00000      1.51260
  9610.00000      1.50979
  9620.00000      1.50699
  9630.00000      1.50419
  9640.00000      1.50139
  9650.00000      1.49859
  9660.00000      1.49578
  9670.00000      1.49298
  9680.00000      1.49018
  9690.00000      1.48738
  9700.00000      1.48457
  9710.00000      1.48177
  9720.00000      1.47897
  9730.00000      1.47617
  9740.00000      1.47337
  9750.00000      1.47056
  9760.00000      1.46776
  9770.00000      1.46496
  9780.00000      1.46216
  9790.00000      1.45936
  9800.00000      1.45655
  9810.00000      1.45375
  9820.00000      1.45095
  9830.00000      1.44815
  9840.00000      1.44535
  9850.00000      1.44254
  9860.00000      1.43974
  9870.00000      1.43694
  9880.00000      1.43414
  9890.00000      1.43134
  9900.00000      1.42853
  9910.00000      1.42573
  9920.00000      1.42293
  9930.00000      1.42013
  9940.00000      1.41733
  9950.00000      1.41452
  9960.00000      1.41172
  9970.00000      1.40892
  9980.00000      1.40612
  9990.00000      1.40332
 10000.00000      1.40051
 10010.00000      1.39771
 10020.00000      1.39491
 10030.00000      1.39211
 10040.00000      1.38930
 10050.00000      1.38650
 10060.00000      1.38370
 10070.00000      1.38090
 10080.00000      1.37810
 10090.00000      1.37529
 10100.00000      1.37249
 10110.00000      1.36969
 10120.00000      1.36689
 10130.00000      1.36409
 10140.00000      1.36128
 10150.00000      1.35848
 10160.00000      1.35568
 10170.00000      1.35288
 10180.00000      1.35008
 10190.00000      1.34727
 10200.00000      1.34447
 10210.00000      1.34167
 10220.00000      1.33887
 10230.00000      1.33607
 10240.00000      1.33326
 10250.00000      1.33046
 10260.00000      1.32766
 10270.00000      1.32486
 10280.00000      1.32206
 10290.00000      1.31925
 10300.00000      1.31645
 10310.00000      1.31365
 10320.00000      1.31085
 10330.00000      1.30805
 10340.00000      1.30524
 10350.00000      1.30244
 10360.00000      1.29964
 10370.00000      1.29684
 10380.00000      1.29404
 10390.00000      1.29123
 10400.00000      1.28843
 10410.00000      1.28563
 10420.00000      1.28283
 10430.00000      1.28003
 10440.00000      1.27722
 10450.00000      1.27442
 10460.00000      1.27162
 10470.00000      1.26882
 10480.00000      1.26601
 10490.00000      1.26321
 10500.00000      1.26041
 10510.00000      1.25761
 10520.00000      1.25481
 10530.00000      1.25200
 10540.00000      1.24920
 10550.00000      1.24640
 10560.00000      1.24360
 10570.00000      1.24080
 10580.00000      1.23799
 10590.00000      1.23519
 10600.00000      1.23239
 10610.00000      1.22959
 10620.00000      1.22679
 10630.00000      1.22398
 10640.00000      1.22118
 10650.00000      1.21838
 10660.00000      1.21558
 10670.00000      1.21278
 10680.00000      1.20997
 10690.00000      1.20717
 10700.00000      1.20437
 10710.00000      1.20157
 10720.00000      1.19877
 10730.00000      1.19596
 10740.00000      1.19316
 10750.00000      1.19036
 10760.00000      1.18756
 10770.00000      1.18476
 10780.00000      1.18195
 10790.00000      1.17915
 10800.00000      1.17635
 10810.00000      1.17355
 10820.00000      1.17075
 10830.00000      1.16794
 10840.00000      1.16514
 10850.00000      1.16234
 10860.00000      1.15954
 10870.00000      1.15673
 10880.00000      1.15393
 10890.00000      1.15113
 10900.00000      1.14833
 10910.00000      1.14553
 10920.00000      1.14272
 10930.00000      1.13992
 10940.00000      1.13712
 10950.00000      1.13432
 10960.00000      1.13152
 10970.00000      1.12871
 10980.00000      1.12591
 10990.00000      1.12311
 11000.00000      1.12031
 11010.00000      1.11751
 11020.00000      1.11470
 11030.00000      1.11190
 11040.00000      1.10910
 11050.00000      1.10630
 11060.00000      1.10350
 11070.00000      1.10069
 11080.00000      1.09789
 11090.00000      1.09509
 11100.00000      1.09229
 11110.00000      1.08949
 11120.00000      1.08668
 11130.00000      1.08388
 11140.00000      1.08108
 11150.00000      1.07828
 11160.00000      1.07548
 11170.00000      1.07267
 11180.00000      1.06987
 11190.00000      1.06707
 11200.00000      1.06427
 11210.00000      1.06146
 11220.00000      1.05866
 11230.00000      1.05586
 11240.00000      1.05306
 11250.00000      1.05026
 11260.00000      1.04745
 11270.00000      1.04465
 11280.00000      1.04185
 11290.00000      1.03905
 11300.00000      1.03625
 11310.00000      1.03344
 11320.00000      1.03064
 11330.00000      1.02784
 11340.00000      1.02504
 11350.00000      1.02224
 11360.00000      1.01943
 11370.00000      1.01663
 11380.00000      1.01383
 11390.00000      1.01103
 11400.00000      1.00823
 11410.00000      1.00542
 11420.00000      1.00262
 11430.00000      0.99982
 11440.00000      0.99702
 11450.00000      0.99422
 11460.00000      0.99141
 11470.00000      0.98861
 11480.00000      0.98581
 11490.00000      0.98301
 11500.00000      0.98021
 11510.00000      0.97740
 11520.00000      0.97460
 11530.00000      0.97180
 11540.00000      0.96900
 11550.00000      0.96620
 11560.00000      0.96339
 11570.00000      0.96059
 11580.00000      0.95779
 11590.00000      0.95499
 11600.00000      0.95218
 11610.00000      0.94938
 11620.00000      0.94658
 11630.00000      0.94378
 11640.00000      0.94098
 11650.00000      0.93817
 11660.00000      0.93537
 11670.00000      0.93257
 11680.00000      0.92977
 11690.00000      0.92697
 11700.00000      0.92416
 11710.00000      0.92136
 11720.00000      0.91856
 11730.00000      0.91576
 11740.00000      0.91296
 11750.00000      0.91015
 11760.00000      0.90735
 11770.00000      0.90455
 11780.00000      0.90175
 11790.00000      0.89895
 11800.00000      0.89614
 11810.00000      0.89334
 11820.00000      0.89054
 11830.00000      0.88774
 11840.00000      0.88494
 11850.00000      0.88213
 11860.00000      0.87933
 11870.00000      0.87653
 11880.00000      0.87373
 11890.00000      0.87093
 11900.00000      0.86812
 11910.00000      0.86532
 11920.00000      0.86252
 11930.00000      0.85972
 11940.00000      0.85691
 11950.00000      0.85411
 11960.00000      0.85131
 11970.00000      0.84851
 11980.00000      0.84571
 11990.00000      0.84290
 12000.00000      0.84010
 12010.00000      0.83730
 12020.00000      0.83450
 12030.00000      0.83170
 12040.00000      0.82889
 12050.00000      0.82609
 12060.00000      0.82329
 12070.00000      0.82049
 12080.00000      0.81769
 12090.00000      0.81488
 12100.00000      0.81208
 12110.00000      0.80928
 12120.00000      0.80648
 12130.00000      0.80368
 12140.00000      0.80087
 12150.00000      0.79807
 12160.00000      0.79527
 12170.00000      0.79247
 12180.00000      0.78967
 12190.00000      0.78686
 12200.00000      0.78406
 12210.00000      0.78126
 12220.00000      0.77846
 12230.00000      0.77566
 12240.00000      0.77285
 12250.00000      0.77005
 12260.00000      0.76725
 12270.00000      0.76445
 12280.00000      0.76165
 12290.00000      0.75884
 12300.00000      0.75604
 12310.00000      0.75324
 12320.00000      0.75044
 12330.00000      0.74764
 12340.00000      0.74483
 12350.00000      0.74203
 12360.00000      0.73923
 12370.00000      0.73643
 12380.00000      0.73362
 12390.00000      0.73082
 12400.00000      0.72802
 12410.00000      0.72522
 12420.00000      0.72242
 12430.00000      0.71961
 12440.00000      0.71681
 12450.00000      0.71401
 12460.00000      0.71121
 12470.00000      0.70841
 12480.00000      0.70560
 12490.00000      0.70280
 12500.00000      0.70000
 12510.00000      0.69915
 12520.00000      0.69830
 12530.00000      0.69745
 12540.00000      0.69660
 12550.00000      0.69575
 12560.00000      0.69490
 12570.00000      0.69405
 12580.00000      0.69320
 12590.00000      0.69235
 12600.00000      0.69150
 12610.00000      0.69065
 12620.00000      0.68980
 12630.00000      0.68895
 12640.00000      0.68810
 12650.00000      0.68725
 12660.00000      0.68640
 12670.00000      0.68555
 12680.00000      0.68470
 12690.00000      0.68385
 12700.00000      0.68300
 12710.00000      0.68215
 12720.00000      0.68130
 12730.00000      0.68045
 12740.00000      0.67960
 12750.00000      0.67875
 12760.00000      0.67790
 12770.00000      0.67705
 12780.00000      0.67620
 12790.00000      0.67535
 12800.00000      0.67450
 12810.00000      0.67365
 12820.00000      0.67280
 12830.00000      0.67195
 12840.00000      0.67110
 12850.00000      0.67025
 12860.00000      0.66940
 12870.00000      0.66855
 12880.00000      0.66770
 12890.00000      0.66685
 12900.00000      0.66600
 12910.00000      0.66515
 12920.00000      0.66430
 12930.00000      0.66345
 12940.00000      0.66260
 12950.00000      0.66175
 12960.00000      0.66090
 12970.00000      0.66005
 12980.00000      0.65920
 12990.00000      0.65835
 13000.00000      0.65750
 13010.00000      0.65665
 13020.00000      0.65580
 13030.00000      0.65495
 13040.00000      0.65410
 13050.00000      0.65325
 13060.00000      0.65240
 13070.00000      0.65155
 13080.00000      0.65070
 13090.00000      0.64985
 13100.00000      0.64900
 13110.00000      0.64815
 13120.00000      0.64730
 13130.00000      0.64645
 13140.00000      0.64560
 13150.00000      0.64475
 13160.00000      0.64390
 13170.00000      0.64305
 13180.00000      0.64220
 13190.00000      0.64135
 13200.00000      0.64050
 13210.00000      0.63965
 13220.00000      0.63880
 13230.00000      0.63795
 13240.00000      0.63710
 13250.00000      0.63625
 13260.00000      0.63540
 13270.00000      0.63455
 13280.00000      0.63370
 13290.00000      0.63285
 13300.00000      0.63200
 13310.00000      0.63115
 13320.00000      0.63030
 13330.00000      0.62945
 13340.00000      0.62860
 13350.00000      0.62775
 13360.00000      0.62690
 13370.00000      0.62605
 13380.00000      0.62520
 13390.00000      0.62435
 13400.00000      0.62350
 13410.00000      0.62265
 13420.00000      0.62180
 13430.00000      0.62095
 13440.00000      0.62010
 13450.00000      0.61925
 13460.00000      0.61840
 13470.00000      0.61755
 13480.00000      0.61670
 13490.00000      0.61585
 13500.00000      0.61500
 13510.00000      0.61415
 13520.00000      0.61330
 13530.00000      0.61245
 13540.00000      0.61160
 13550.00000      0.61075
 13560.00000      0.60990
 13570.00000      0.60905
 13580.00000      0.60820
 13590.00000      0.60735
 13600.00000      0.60650
 13610.00000      0.60565
 13620.00000      0.60480
 13630.00000      0.60395
 13640.00000      0.60310
 13650.00000      0.60225
 13660.00000      0.60140
 13670.00000      0.60055
 13680.00000      0.59970
 13690.00000      0.59885
 13700.00000      0.59800
 13710.00000      0.59715
 13720.00000      0.59630
 13730.00000      0.59545
 13740.00000      0.59460
 13750.00000      0.59375
 13760.00000      0.59290
 13770.00000      0.59205
 13780.00000      0.59120
 13790.00000      0.59035
 13800.00000      0.58950
 13810.00000      0.58865
 13820.00000      0.58780
 13830.00000      0.58695
 13840.00000      0.58610
 13850.00000      0.58525
 13860.00000      0.58440
 13870.00000      0.58355
 13880.00000      0.58270
 13890.00000      0.58185
 13900.00000      0.58100
 13910.00000      0.58015
 13920.00000      0.57930
 13930.00000      0.57845
 13940.00000      0.57760
 13950.00000      0.57675
 13960.00000      0.57590
 13970.00000      0.57505
 13980.00000      0.57420
 13990.00000      0.57335
 14000.00000      0.57250
 14010.00000      0.57165
 14020.00000      0.57080
 14030.00000      0.56995
 14040.00000      0.56910
 14050.00000      0.56825
 14060.00000      0.56740
 14070.00000      0.56655
 14080.00000      0.56570
 14090.00000      0.56485
 14100.00000      0.56400
 14110.00000      0.56315
 14120.00000      0.56230
 14130.00000      0.56145
 14140.00000      0.56060
 14150.00000      0.55975
 14160.00000      0.55890
 14170.00000      0.55805
 14180.00000      0.55720
 14190.00000      0.55635
 14200.00000      0.55550
 14210.00000      0.55465
 14220.00000      0.55380
 14230.00000      0.55295
 14240.00000      0.55210
 14250.00000      0.55125
 14260.00000      0.55040
 14270.00000      0.54955
 14280.00000      0.54870
 14290.00000      0.54785
 14300.00000      0.54700
 14310.00000      0.54615
 14320.00000      0.54530
 14330.00000      0.54445
 14340.00000      0.54360
 14350.00000      0.54275
 14360.00000      0.54190
 14370.00000      0.54105
 14380.00000      0.54020
 14390.00000      0.53935
 14400.00000      0.53850
 14410.00000      0.53765
 14420.00000      0.53680
 14430.00000      0.53595
 14440.00000      0.53510
 14450.00000      0.53425
 14460.00000      0.53340
 14470.00000      0.53255
 14480.00000      0.53170
 14490.00000      0.53085
 14500.00000      0.53000
 14510.00000      0.52915
 14520.00000      0.52830
 14530.00000      0.52745
 14540.00000      0.52660
 14550.00000      0.52575
 14560.00000      0.52490
 14570.00000      0.52405
 14580.00000      0.52320
 14590.00000      0.52235
 14600.00000      0.52150
 14610.00000      0.52065
 14620.00000      0.51980
 14630.00000      0.51895
 14640.00000      0.51810
 14650.00000      0.51725
 14660.00000      0.51640
 14670.00000      0.51555
 14680.00000      0.51470
 14690.00000      0.51385
 14700.00000      0.51300
 14710.00000      0.51215
 14720.00000      0.51130
 14730.00000      0.51045
 14740.00000      0.50960
 14750.00000      0.50875
 14760.00000      0.50790
 14770.00000      0.50705
 14780.00000      0.50620
 14790.00000      0.50535
 14800.00000      0.50450
 14810.00000      0.50365
 14820.00000      0.50280
 14830.00000      0.50195
 14840.00000      0.50110
 14850.00000      0.50025
 14860.00000      0.49940
 14870.00000      0.49855
 14880.00000      0.49770
 14890.00000      0.49685
 14900.00000      0.49600
 14910.00000      0.49515
 14920.00000      0.49430
 14930.00000      0.49345
 14940.00000      0.49260
 14950.00000      0.49175
 14960.00000      0.49090
 14970.00000      0.49005
 14980.00000      0.48920
 14990.00000      0.48835
 15000.00000      0.48750
 15010.00000      0.48665
 15020.00000      0.48580
 15030.00000      0.48495
 15040.00000      0.48410
 15050.00000      0.48325
 15060.00000      0.48240
 15070.00000      0.48155
 15080.00000      0.48070
 15090.00000      0.47985
 15100.00000      0.47900
 15110.00000      0.47815
 15120.00000      0.47730
 15130.00000      0.47645
 15140.00000      0.47560
 15150.00000      0.47475
 15160.00000      0.47390
 15170.00000      0.47305
 15180.00000      0.47220
 15190.00000      0.47135
 15200.00000      0.47050
 15210.00000      0.46965
 15220.00000      0.46880
 15230.00000      0.46795
 15240.00000      0.46710
 15250.00000      0.46625
 15260.00000      0.46540
 15270.00000      0.46455
 15280.00000      0.46370
 15290.00000      0.46285
 15300.00000      0.46200
 15310.00000      0.46115
 15320.00000      0.46030
 15330.00000      0.45945
 15340.00000      0.45860
 15350.00000      0.45775
 15360.00000      0.45690
 15370.00000      0.45605
 15380.00000      0.45520
 15390.00000      0.45435
 15400.00000      0.45350
 15410.00000      0.45265
 15420.00000      0.45180
 15430.00000      0.45095
 15440.00000      0.45010
 15450.00000      0.44925
 15460.00000      0.44840
 15470.00000      0.44755
 15480.00000      0.44670
 15490.00000      0.44585
 15500.00000      0.44500
 15510.00000      0.44415
 15520.00000      0.44330
 15530.00000      0.44245
 15540.00000      0.44160
 15550.00000      0.44075
 15560.00000      0.43990
 15570.00000      0.43905
 15580.00000      0.43820
 15590.00000      0.43735
 15600.00000      0.43650
 15610.00000      0.43565
 15620.00000      0.43480
 15630.00000      0.43395
 15640.00000      0.43310
 15650.00000      0.43225
 15660.00000      0.43140
 15670.00000      0.43055
 15680.00000      0.42970
 15690.00000      0.42885
 15700.00000      0.42800
 15710.00000      0.42715
 15720.00000      0.42630
 15730.00000      0.42545
 15740.00000      0.42460
 15750.00000      0.42375
 15760.00000      0.42290
 15770.00000      0.42205
 15780.00000      0.42120
 15790.00000      0.42035
 15800.00000      0.41950
 15810.00000      0.41865
 15820.00000      0.41780
 15830.00000      0.41695
 15840.00000      0.41610
 15850.00000      0.41525
 15860.00000      0.41440
 15870.00000      0.41355
 15880.00000      0.41270
 15890.00000      0.41185
 15900.00000      0.41100
 15910.00000      0.41015
 15920.00000      0.40930
 15930.00000      0.40845
 15940.00000      0.40760
 15950.00000      0.40675
 15960.00000      0.40590
 15970.00000      0.40505
 15980.00000      0.40420
 15990.00000      0.40335
 16000.00000      0.40250
 16010.00000      0.40165
 16020.00000      0.40080
 16030.00000      0.39995
 16040.00000      0.39910
 16050.00000      0.39825
 16060.00000      0.39740
 16070.00000      0.39655
 16080.00000      0.39570
 16090.00000      0.39485
 16100.00000      0.39400
 16110.00000      0.39315
 16120.00000      0.39230
 16130.00000      0.39145
 16140.00000      0.39060
 16150.00000      0.38975
 16160.00000      0.38890
 16170.00000      0.38805
 16180.00000      0.38720
 16190.00000      0.38635
 16200.00000      0.38550
 16210.00000      0.38465
 16220.00000      0.38380
 16230.00000      0.38295
 16240.00000      0.38210
 16250.00000      0.38125
 16260.00000      0.38040
 16270.00000      0.37955
 16280.00000      0.37870
 16290.00000      0.37785
 16300.00000      0.37700
 16310.00000      0.37615
 16320.00000      0.37530
 16330.00000      0.37445
 16340.00000      0.37360
 16350.00000      0.37275
 16360.00000      0.37190
 16370.00000      0.37105
 16380.00000      0.37020
 16390.00000      0.36935
 16400.00000      0.36850
 16410.00000      0.36765
 16420.00000      0.36680
 16430.00000      0.36595
 16440.00000      0.36510
 16450.00000      0.36425
 16460.00000      0.36340
 16470.00000      0.36255
 16480.00000      0.36170
 16490.00000      0.36085
 16500.00000      0.36000
 16510.00000      0.35980
 16520.00000      0.35960
 16530.00000      0.35940
 16540.00000      0.35920
 16550.00000      0.35900
 16560.00000      0.35880
 16570.00000      0.35860
 16580.00000      0.35840
 16590.00000      0.35820
 16600.00000      0.35800
 16610.00000      0.35780
 16620.00000      0.35760
 16630.00000      0.35740
 16640.00000      0.35720
 16650.00000      0.35700
 16660.00000      0.35680
 16670.00000      0.35660
 16680.00000      0.35640
 16690.00000      0.35620
 16700.00000      0.35600
 16710.00000      0.35580
 16720.00000      0.35560
 16730.00000      0.35540
 16740.00000      0.35520
 16750.00000      0.35500
 16760.00000      0.35480
 16770.00000      0.35460
 16780.00000      0.35440
 16790.00000      0.35420
 16800.00000      0.35400
 16810.00000      0.35380
 16820.00000      0.35360
 16830.00000      0.35340
 16840.00000      0.35320
 16850.00000      0.35300
 16860.00000      0.35280
 16870.00000      0.35260
 16880.00000      0.35240
 16890.00000      0.35220
 16900.00000      0.35200
 16910.00000      0.35180
 16920.00000      0.35160
 16930.00000      0.35140
 16940.00000      0.35120
 16950.00000      0.35100
 16960.00000      0.35080
 16970.00000      0.35060
 16980.00000      0.35040
 16990.00000      0.35020
 17000.00000      0.35000
 17010.00000      0.34980
 17020.00000      0.34960
 17030.00000      0.34940
 17040.00000      0.34920
 17050.00000      0.34900
 17060.00000      0.34880
 17070.00000      0.34860
 17080.00000      0.34840
 17090.00000      0.34820
 17100.00000      0.34800
 17110.00000      0.34780
 17120.00000      0.34760
 17130.00000      0.34740
 17140.00000      0.34720
 17150.00000      0.34700
 17160.00000      0.34680
 17170.00000      0.34660
 17180.00000      0.34640
 17190.00000      0.34620
 17200.00000      0.34600
 17210.00000      0.34580
 17220.00000      0.34560
 17230.00000      0.34540
 17240.00000      0.34520
 17250.00000      0.34500
 17260.00000      0.34480
 17270.00000      0.34460
 17280.00000      0.34440
 17290.00000      0.34420
 17300.00000      0.34400
 17310.00000      0.34380
 17320.00000      0.34360
 17330.00000      0.34340
 17340.00000      0.34320
 17350.00000      0.34300
 17360.00000      0.34280
 17370.00000      0.34260
 17380.00000      0.34240
 17390.00000      0.34220
 17400.00000      0.34200
 17410.00000      0.34180
 17420.00000      0.34160
 17430.00000      0.34140
 17440.00000      0.34120
 17450.00000      0.34100
 17460.00000      0.34080
 17470.00000      0.34060
 17480.00000      0.34040
 17490.00000      0.34020
 17500.00000      0.34000
 17510.00000      0.33980
 17520.00000      0.33960
 17530.00000      0.33940
 17540.00000      0.33920
 17550.00000      0.33900
 17560.00000      0.33880
 17570.00000      0.33860
 17580.00000      0.33840
 17590.00000      0.33820
 17600.00000      0.33800
 17610.00000      0.33780
 17620.00000      0.33760
 17630.00000      0.33740
 17640.00000      0.33720
 17650.00000      0.33700
 17660.00000      0.33680
 17670.00000      0.33660
 17680.00000      0.33640
 17690.00000      0.33620
 17700.00000      0.33600
 17710.00000      0.33580
 17720.00000      0.33560
 17730.00000      0.33540
 17740.00000      0.33520
 17750.00000      0.33500
 17760.00000      0.33480
 17770.00000      0.33460
 17780.00000      0.33440
 17790.00000      0.33420
 17800.00000      0.33400
 17810.00000      0.33380
 17820.00000      0.33360
 17830.00000      0.33340
 17840.00000      0.33320
 17850.00000      0.33300
 17860.00000      0.33280
 17870.00000      0.33260
 17880.00000      0.33240
 17890.00000      0.33220
 17900.00000      0.33200
 17910.00000      0.33180
 17920.00000      0.33160
 17930.00000      0.33140
 17940.00000      0.33120
 17950.00000      0.33100
 17960.00000      0.33080
 17970.00000      0.33060
 17980.00000      0.33040
 17990.00000      0.33020
 18000.00000      0.33000
 18010.00000      0.32980
 18020.00000      0.32960
 18030.00000      0.32940
 18040.00000      0.32920
 18050.00000      0.32900
 18060.00000      0.32880
 18070.00000      0.32860
 18080.00000      0.32840
 18090.00000      0.32820
 18100.00000      0.32800
 18110.00000      0.32780
 18120.00000      0.32760
 18130.00000      0.32740
 18140.00000      0.32720
 18150.00000      0.32700
 18160.00000      0.32680
 18170.00000      0.32660
 18180.00000      0.32640
 18190.00000      0.32620
 18200.00000      0.32600
 18210.00000      0.32580
 18220.00000      0.32560
 18230.00000      0.32540
 18240.00000      0.32520
 18250.00000      0.32500
 18260.00000      0.32480
 18270.00000      0.32460
 18280.00000      0.32440
 18290.00000      0.32420
 18300.00000      0.32400
 18310.00000      0.32380
 18320.00000      0.32360
 18330.00000      0.32340
 18340.00000      0.32320
 18350.00000      0.32300
 18360.00000      0.32280
 18370.00000      0.32260
 18380.00000      0.32240
 18390.00000      0.32220
 18400.00000      0.32200
 18410.00000      0.32180
 18420.00000      0.32160
 18430.00000      0.32140
 18440.00000      0.32120
 18450.00000      0.32100
 18460.00000      0.32080
 18470.00000      0.32060
 18480.00000      0.32040
 18490.00000      0.32020
 18500.00000      0.32000
 18510.00000      0.31980
 18520.00000      0.31960
 18530.00000      0.31940
 18540.00000      0.31920
 18550.00000      0.31900
 18560.00000      0.31880
 18570.00000      0.31860
 18580.00000      0.31840
 18590.00000      0.31820
 18600.00000      0.31800
 18610.00000      0.31780
 18620.00000      0.31760
 18630.00000      0.31740
 18640.00000      0.31720
 18650.00000      0.31700
 18660.00000      0.31680
 18670.00000      0.31660
 18680.00000      0.31640
 18690.00000      0.31620
 18700.00000      0.31600
 18710.00000      0.31580
 18720.00000      0.31560
 18730.00000      0.31540
 18740.00000      0.31520
 18750.00000      0.31500
 18760.00000      0.31480
 18770.00000      0.31460
 18780.00000      0.31440
 18790.00000      0.31420
 18800.00000      0.31400
 18810.00000      0.31380
 18820.00000      0.31360
 18830.00000      0.31340
 18840.00000      0.31320
 18850.00000      0.31300
 18860.00000      0.31280
 18870.00000      0.31260
 18880.00000      0.31240
 18890.00000      0.31220
 18900.00000      0.31200
 18910.00000      0.31180
 18920.00000      0.31160
 18930.00000      0.31140
 18940.00000      0.31120
 18950.00000      0.31100
 18960.00000      0.31080
 18970.00000      0.31060
 18980.00000      0.31040
 18990.00000      0.31020
 19000.00000      0.31000
 19010.00000      0.30980
 19020.00000      0.30960
 19030.00000      0.30940
 19040.00000      0.30920
 19050.00000      0.30900
 19060.00000      0.30880
 19070.00000      0.30860
 19080.00000      0.30840
 19090.00000      0.30820
 19100.00000      0.30800
 19110.00000      0.30780
 19120.00000      0.30760
 19130.00000      0.30740
 19140.00000      0.30720
 19150.00000      0.30700
 19160.00000      0.30680
 19170.00000      0.30660
 19180.00000      0.30640
 19190.00000      0.30620
 19200.00000      0.30600
 19210.00000      0.30580
 19220.00000      0.30560
 19230.00000      0.30540
 19240.00000      0.30520
 19250.00000      0.30500
 19260.00000      0.30480
 19270.00000      0.30460
 19280.00000      0.30440
 19290.00000      0.30420
 19300.00000      0.30400
 19310.00000      0.30380
 19320.00000      0.30360
 19330.00000      0.30340
 19340.00000      0.30320
 19350.00000      0.30300
 19360.00000      0.30280
 19370.00000      0.30260
 19380.00000      0.30240
 19390.00000      0.30220
 19400.00000      0.30200
 19410.00000      0.30180
 19420.00000      0.30160
 19430.00000      0.30140
 19440.00000      0.30120
 19450.00000      0.30100
 19460.00000      0.30080
 19470.00000      0.30060
 19480.00000      0.30040
 19490.00000      0.30020
 19500.00000      0.30000
 19510.00000      0.29980
 19520.00000      0.29960
 19530.00000      0.29940
 19540.00000      0.29920
 19550.00000      0.29900
 19560.00000      0.29880
 19570.00000      0.29860
 19580.00000      0.29840
 19590.00000      0.29820
 19600.00000      0.29800
 19610.00000      0.29780
 19620.00000      0.29760
 19630.00000      0.29740
 19640.00000      0.29720
 19650.00000      0.29700
 19660.00000      0.29680
 19670.00000      0.29660
 19680.00000      0.29640
 19690.00000      0.29620
 19700.00000      0.29600
 19710.00000      0.29580
 19720.00000      0.29560
 19730.00000      0.29540
 19740.00000      0.29520
 19750.00000      0.29500
 19760.00000      0.29480
 19770.00000      0.29460
 19780.00000      0.29440
 19790.00000      0.29420
 19800.00000      0.29400
 19810.00000      0.29380
 19820.00000      0.29360
 19830.00000      0.29340
 19840.00000      0.29320
 19850.00000      0.29300
 19860.00000      0.29280
 19870.00000      0.29260
 19880.00000      0.29240
 19890.00000      0.29220
 19900.00000      0.29200
 19910.00000      0.29180
 19920.00000      0.29160
 19930.00000      0.29140
 19940.00000      0.29120
 19950.00000      0.29100
 19960.00000      0.29080
 19970.00000      0.29060
 19980.00000      0.29040
 19990.00000      0.29020
 20000.00000      0.29000
 20010.00000      0.28980
 20020.00000      0.28960
 20030.00000      0.28940
 20040.00000      0.28920
 20050.00000      0.28900
 20060.00000      0.28880
 20070.00000      0.28860
 20080.00000      0.28840
 20090.00000      0.28820
 20100.00000      0.28800
 20110.00000      0.28780
 20120.00000      0.28760
 20130.00000      0.28740
 20140.00000      0.28720
 20150.00000      0.28700
 20160.00000      0.28680
 20170.00000      0.28660
 20180.00000      0.28640
 20190.00000      0.28620
 20200.00000      0.28600
 20210.00000      0.28580
 20220.00000      0.28560
 20230.00000      0.28540
 20240.00000      0.28520
 20250.00000      0.28500
 20260.00000      0.28480
 20270.00000      0.28460
 20280.00000      0.28440
 20290.00000      0.28420
 20300.00000      0.28400
 20310.00000      0.28380
 20320.00000      0.28360
 20330.00000      0.28340
 20340.00000      0.28320
 20350.00000      0.28300
 20360.00000      0.28280
 20370.00000      0.28260
 20380.00000      0.28240
 20390.00000      0.28220
 20400.00000      0.28200
 20410.00000      0.28180
 20420.00000      0.28160
 20430.00000      0.28140
 20440.00000      0.28120
 20450.00000      0.28100
 20460.00000      0.28080
 20470.00000      0.28060
 20480.00000      0.28040
 20490.00000      0.28020
 20500.00000      0.28000
 20510.00000      0.27980
 20520.00000      0.27960
 20530.00000      0.27940
 20540.00000      0.27920
 20550.00000      0.27900
 20560.00000      0.27880
 20570.00000      0.27860
 20580.00000      0.27840
 20590.00000      0.27820
 20600.00000      0.27800
 20610.00000      0.27780
 20620.00000      0.27760
 20630.00000      0.27740
 20640.00000      0.27720
 20650.00000      0.27700
 20660.00000      0.27680
 20670.00000      0.27660
 20680.00000      0.27640
 20690.00000      0.27620
 20700.00000      0.27600
 20710.00000      0.27580
 20720.00000      0.27560
 20730.00000      0.27540
 20740.00000      0.27520
 20750.00000      0.27500
 20760.00000      0.27480
 20770.00000      0.27460
 20780.00000      0.27440
 20790.00000      0.27420
 20800.00000      0.27400
 20810.00000      0.27380
 20820.00000      0.27360
 20830.00000      0.27340
 20840.00000      0.27320
 20850.00000      0.27300
 20860.00000      0.27280
 20870.00000      0.27260
 20880.00000      0.27240
 20890.00000      0.27220
 20900.00000      0.27200
 20910.00000      0.27180
 20920.00000      0.27160
 20930.00000      0.27140
 20940.00000      0.27120
 20950.00000      0.27100
 20960.00000      0.27080
 20970.00000      0.27060
 20980.00000      0.27040
 20990.00000      0.27020
 21000.00000      0.27000
 21010.00000      0.26980
 21020.00000      0.26960
 21030.00000      0.26940
 21040.00000      0.26920
 21050.00000      0.26900
 21060.00000      0.26880
 21070.00000      0.26860
 21080.00000      0.26840
 21090.00000      0.26820
 21100.00000      0.26800
 21110.00000      0.26780
 21120.00000      0.26760
 21130.00000      0.26740
 21140.00000      0.26720
 21150.00000      0.26700
 21160.00000      0.26680
 21170.00000      0.26660
 21180.00000      0.26640
 21190.00000      0.26620
 21200.00000      0.26600
 21210.00000      0.26580
 21220.00000      0.26560
 21230.00000      0.26540
 21240.00000      0.26520
 21250.00000      0.26500
 21260.00000      0.26480
 21270.00000      0.26460
 21280.00000      0.26440
 21290.00000      0.26420
 21300.00000      0.26400
 21310.00000      0.26380
 21320.00000      0.26360
 21330.00000      0.26340
 21340.00000      0.26320
 21350.00000      0.26300
 21360.00000      0.26280
 21370.00000      0.26260
 21380.00000      0.26240
 21390.00000      0.26220
 21400.00000      0.26200
 21410.00000      0.26180
 21420.00000      0.26160
 21430.00000      0.26140
 21440.00000      0.26120
 21450.00000      0.26100
 21460.00000      0.26080
 21470.00000      0.26060
 21480.00000      0.26040
 21490.00000      0.26020
 21500.00000      0.26000
 21510.00000      0.25980
 21520.00000      0.25960
 21530.00000      0.25940
 21540.00000      0.25920
 21550.00000      0.25900
 21560.00000      0.25880
 21570.00000      0.25860
 21580.00000      0.25840
 21590.00000      0.25820
 21600.00000      0.25800
 21610.00000      0.25780
 21620.00000      0.25760
 21630.00000      0.25740
 21640.00000      0.25720
 21650.00000      0.25700
 21660.00000      0.25680
 21670.00000      0.25660
 21680.00000      0.25640
 21690.00000      0.25620
 21700.00000      0.25600
 21710.00000      0.25580
 21720.00000      0.25560
 21730.00000      0.25540
 21740.00000      0.25520
 21750.00000      0.25500
 21760.00000      0.25480
 21770.00000      0.25460
 21780.00000      0.25440
 21790.00000      0.25420
 21800.00000      0.25400
 21810.00000      0.25380
 21820.00000      0.25360
 21830.00000      0.25340
 21840.00000      0.25320
 21850.00000      0.25300
 21860.00000      0.25280
 21870.00000      0.25260
 21880.00000      0.25240
 21890.00000      0.25220
 21900.00000      0.25200
 21910.00000      0.25180
 21920.00000      0.25160
 21930.00000      0.25140
 21940.00000      0.25120
 21950.00000      0.25100
 21960.00000      0.25080
 21970.00000      0.25060
 21980.00000      0.25040
 21990.00000      0.25020
 22000.00000      0.25000
 22010.00000      0.24980
 22020.00000      0.24960
 22030.00000      0.24940
 22040.00000      0.24920
 22050.00000      0.24900
 22060.00000      0.24880
 22070.00000      0.24860
 22080.00000      0.24840
 22090.00000      0.24820
 22100.00000      0.24800
 22110.00000      0.24780
 22120.00000      0.24760
 22130.00000      0.24740
 22140.00000      0.24720
 22150.00000      0.24700
 22160.00000      0.24680
 22170.00000      0.24660
 22180.00000      0.24640
 22190.00000      0.24620
 22200.00000      0.24600
 22210.00000      0.24580
 22220.00000      0.24560
 22230.00000      0.24540
 22240.00000      0.24520
 22250.00000      0.24500
 22260.00000      0.24480
 22270.00000      0.24460
 22280.00000      0.24440
 22290.00000      0.24420
 22300.00000      0.24400
 22310.00000      0.24380
 22320.00000      0.24360
 22330.00000      0.24340
 22340.00000      0.24320
 22350.00000      0.24300
 22360.00000      0.24280
 22370.00000      0.24260
 22380.00000      0.24240
 22390.00000      0.24220
 22400.00000      0.24200
 22410.00000      0.24180
 22420.00000      0.24160
 22430.00000      0.24140
 22440.00000      0.24120
 22450.00000      0.24100
 22460.00000      0.24080
 22470.00000      0.24060
 22480.00000      0.24040
 22490.00000      0.24020
 22500.00000      0.24000
 22510.00000      0.23980
 22520.00000      0.23960
 22530.00000      0.23940
 22540.00000      0.23920
 22550.00000      0.23900
 22560.00000      0.23880
 22570.00000      0.23860
 22580.00000      0.23840
 22590.00000      0.23820
 22600.00000      0.23800
 22610.00000      0.23780
 22620.00000      0.23760
 22630.00000      0.23740
 22640.00000      0.23720
 22650.00000      0.23700
 22660.00000      0.23680
 22670.00000      0.23660
 22680.00000      0.23640
 22690.00000      0.23620
 22700.00000      0.23600
 22710.00000      0.23580
 22720.00000      0.23560
 22730.00000      0.23540
 22740.00000      0.23520
 22750.00000      0.23500
 22760.00000      0.23480
 22770.00000      0.23460
 22780.00000      0.23440
 22790.00000      0.23420
 22800.00000      0.23400
 22810.00000      0.23380
 22820.00000      0.23360
 22830.00000      0.23340
 22840.00000      0.23320
 22850.00000      0.23300
 22860.00000      0.23280
 22870.00000      0.23260
 22880.00000      0.23240
 22890.00000      0.23220
 22900.00000      0.23200
 22910.00000      0.23180
 22920.00000      0.23160
 22930.00000      0.23140
 22940.00000      0.23120
 22950.00000      0.23100
 22960.00000      0.23080
 22970.00000      0.23060
 22980.00000      0.23040
 22990.00000      0.23020
 23000.00000      0.23000
 23010.00000      0.22980
 23020.00000      0.22960
 23030.00000      0.22940
 23040.00000      0.22920
 23050.00000      0.22900
 23060.00000      0.22880
 23070.00000      0.22860
 23080.00000      0.22840
 23090.00000      0.22820
 23100.00000      0.22800
 23110.00000      0.22780
 23120.00000      0.22760
 23130.00000      0.22740
 23140.00000      0.22720
 23150.00000      0.22700
 23160.00000      0.22680
 23170.00000      0.22660
 23180.00000      0.22640
 23190.00000      0.22620
 23200.00000      0.22600
 23210.00000      0.22580
 23220.00000      0.22560
 23230.00000      0.22540
 23240.00000      0.22520
 23250.00000      0.22500
 23260.00000      0.22480
 23270.00000      0.22460
 23280.00000      0.22440
 23290.00000      0.22420
 23300.00000      0.22400
 23310.00000      0.22380
 23320.00000      0.22360
 23330.00000      0.22340
 23340.00000      0.22320
 23350.00000      0.22300
 23360.00000      0.22280
 23370.00000      0.22260
 23380.00000      0.22240
 23390.00000      0.22220
 23400.00000      0.22200
 23410.00000      0.22180
 23420.00000      0.22160
 23430.00000      0.22140
 23440.00000      0.22120
 23450.00000      0.22100
 23460.00000      0.22080
 23470.00000      0.22060
 23480.00000      0.22040
 23490.00000      0.22020
 23500.00000      0.22000
 23510.00000      0.21980
 23520.00000      0.21960
 23530.00000      0.21940
 23540.00000      0.21920
 23550.00000      0.21900
 23560.00000      0.21880
 23570.00000      0.21860
 23580.00000      0.21840
 23590.00000      0.21820
 23600.00000      0.21800
 23610.00000      0.21780
 23620.00000      0.21760
 23630.00000      0.21740
 23640.00000      0.21720
 23650.00000      0.21700
 23660.00000      0.21680
 23670.00000      0.21660
 23680.00000      0.21640
 23690.00000      0.21620
 23700.00000      0.21600
 23710.00000      0.21580
 23720.00000      0.21560
 23730.00000      0.21540
 23740.00000      0.21520
 23750.00000      0.21500
 23760.00000      0.21480
 23770.00000      0.21460
 23780.00000      0.21440
 23790.00000      0.21420
 23800.00000      0.21400
 23810.00000      0.21380
 23820.00000      0.21360
 23830.00000      0.21340
 23840.00000      0.21320
 23850.00000      0.21300
 23860.00000      0.21280
 23870.00000      0.21260
 23880.00000      0.21240
 23890.00000      0.21220
 23900.00000      0.21200
 23910.00000      0.21180
 23920.00000      0.21160
 23930.00000      0.21140
 23940.00000      0.21120
 23950.00000      0.21100
 23960.00000      0.21080
 23970.00000      0.21060
 23980.00000      0.21040
 23990.00000      0.21020
 24000.00000      0.21000
 24010.00000      0.20980
 24020.00000      0.20960
 24030.00000      0.20940
 24040.00000      0.20920
 24050.00000      0.20900
 24060.00000      0.20880
 24070.00000      0.20860
 24080.00000      0.20840
 24090.00000      0.20820
 24100.00000      0.20800
 24110.00000      0.20780
 24120.00000      0.20760
 24130.00000      0.20740
 24140.00000      0.20720
 24150.00000      0.20700
 24160.00000      0.20680
 24170.00000      0.20660
 24180.00000      0.20640
 24190.00000      0.20620
 24200.00000      0.20600
 24210.00000      0.20580
 24220.00000      0.20560
 24230.00000      0.20540
 24240.00000      0.20520
 24250.00000      0.20500
 24260.00000      0.20480
 24270.00000      0.20460
 24280.00000      0.20440
 24290.00000      0.20420
 24300.00000      0.20400
 24310.00000      0.20380
 24320.00000      0.20360
 24330.00000      0.20340
 24340.00000      0.20320
 24350.00000      0.20300
 24360.00000      0.20280
 24370.00000      0.20260
 24380.00000      0.20240
 24390.00000      0.20220
 24400.00000      0.20200
 24410.00000      0.20180
 24420.00000      0.20160
 24430.00000      0.20140
 24440.00000      0.20120
 24450.00000      0.20100
 24460.00000      0.20080
 24470.00000      0.20060
 24480.00000      0.20040
 24490.00000      0.20020
 24500.00000      0.20000
 24510.00000      0.19980
 24520.00000      0.19960
 24530.00000      0.19940
 24540.00000      0.19920
 24550.00000      0.19900
 24560.00000      0.19880
 24570.00000      0.19860
 24580.00000      0.19840
 24590.00000      0.19820
 24600.00000      0.19800
 24610.00000      0.19780
 24620.00000      0.19760
 24630.00000      0.19740
 24640.00000      0.19720
 24650.00000      0.19700
 24660.00000      0.19680
 24670.00000      0.19660
 24680.00000      0.19640
 24690.00000      0.19620
 24700.00000      0.19600
 24710.00000      0.19580
 24720.00000      0.19560
 24730.00000      0.19540
 24740.00000      0.19520
 24750.00000      0.19500
 24760.00000      0.19480
 24770.00000      0.19460
 24780.00000      0.19440
 24790.00000      0.19420
 24800.00000      0.19400
 24810.00000      0.19380
 24820.00000      0.19360
 24830.00000      0.19340
 24840.00000      0.19320
 24850.00000      0.19300
 24860.00000      0.19280
 24870.00000      0.19260
 24880.00000      0.19240
 24890.00000      0.19220
 24900.00000      0.19200
 24910.00000      0.19180
 24920.00000      0.19160
 24930.00000      0.19140
 24940.00000      0.19120
 24950.00000      0.19100
 24960.00000      0.19080
 24970.00000      0.19060
 24980.00000      0.19040
 24990.00000      0.19020
 25000.00000      0.19000
 25010.00000      0.18980
 25020.00000      0.18960
 25030.00000      0.18940
 25040.00000      0.18920
 25050.00000      0.18900
 25060.00000      0.18880
 25070.00000      0.18860
 25080.00000      0.18840
 25090.00000      0.18820
 25100.00000      0.18800
 25110.00000      0.18780
 25120.00000      0.18760
 25130.00000      0.18740
 25140.00000      0.18720
 25150.00000      0.18700
 25160.00000      0.18680
 25170.00000      0.18660
 25180.00000      0.18640
 25190.00000      0.18620
 25200.00000      0.18600
 25210.00000      0.18580
 25220.00000      0.18560
 25230.00000      0.18540
 25240.00000      0.18520
 25250.00000      0.18500
 25260.00000      0.18480
 25270.00000      0.18460
 25280.00000      0.18440
 25290.00000      0.18420
 25300.00000      0.18400
 25310.00000      0.18380
 25320.00000      0.18360
 25330.00000      0.18340
 25340.00000      0.18320
 25350.00000      0.18300
 25360.00000      0.18280
 25370.00000      0.18260
 25380.00000      0.18240
 25390.00000      0.18220
 25400.00000      0.18200
 25410.00000      0.18180
 25420.00000      0.18160
 25430.00000      0.18140
 25440.00000      0.18120
 25450.00000      0.18100
 25460.00000      0.18080
 25470.00000      0.18060
 25480.00000      0.18040
 25490.00000      0.18020
 25500.00000      0.18000
 25510.00000      0.17980
 25520.00000      0.17960
 25530.00000      0.17940
 25540.00000      0.17920
 25550.00000      0.17900
 25560.00000      0.17880
 25570.00000      0.17860
 25580.00000      0.17840
 25590.00000      0.17820
 25600.00000      0.17800
 25610.00000      0.17780
 25620.00000      0.17760
 25630.00000      0.17740
 25640.00000      0.17720
 25650.00000      0.17700
 25660.00000      0.17680
 25670.00000      0.17660
 25680.00000      0.17640
 25690.00000      0.17620
 25700.00000      0.17600
 25710.00000      0.17580
 25720.00000      0.17560
 25730.00000      0.17540
 25740.00000      0.17520
 25750.00000      0.17500
 25760.00000      0.17480
 25770.00000      0.17460
 25780.00000      0.17440
 25790.00000      0.17420
 25800.00000      0.17400
 25810.00000      0.17380
 25820.00000      0.17360
 25830.00000      0.17340
 25840.00000      0.17320
 25850.00000      0.17300
 25860.00000      0.17280
 25870.00000      0.17260
 25880.00000      0.17240
 25890.00000      0.17220
 25900.00000      0.17200
 25910.00000      0.17180
 25920.00000      0.17160
 25930.00000      0.17140
 25940.00000      0.17120
 25950.00000      0.17100
 25960.00000      0.17080
 25970.00000      0.17060
 25980.00000      0.17040
 25990.00000      0.17020
 26000.00000      0.17000
 26010.00000      0.16980
 26020.00000      0.16960
 26030.00000      0.16940
 26040.00000      0.16920
 26050.00000      0.16900
 26060.00000      0.16880
 26070.00000      0.16860
 26080.00000      0.16840
 26090.00000      0.16820
 26100.00000      0.16800
 26110.00000      0.16780
 26120.00000      0.16760
 26130.00000      0.16740
 26140.00000      0.16720
 26150.00000      0.16700
 26160.00000      0.16680
 26170.00000      0.16660
 26180.00000      0.16640
 26190.00000      0.16620
 26200.00000      0.16600
 26210.00000      0.16580
 26220.00000      0.16560
 26230.00000      0.16540
 26240.00000      0.16520
 26250.00000      0.16500
 26260.00000      0.16480
 26270.00000      0.16460
 26280.00000      0.16440
 26290.00000      0.16420
 26300.00000      0.16400
 26310.00000      0.16380
 26320.00000      0.16360
 26330.00000      0.16340
 26340.00000      0.16320
 26350.00000      0.16300
 26360.00000      0.16280
 26370.00000      0.16260
 26380.00000      0.16240
 26390.00000      0.16220
 26400.00000      0.16200
 26410.00000      0.16180
 26420.00000      0.16160
 26430.00000      0.16140
 26440.00000      0.16120
 26450.00000      0.16100
 26460.00000      0.16080
 26470.00000      0.16060
 26480.00000      0.16040
 26490.00000      0.16020
 26500.00000      0.16000
 26510.00000      0.15980
 26520.00000      0.15960
 26530.00000      0.15940
 26540.00000      0.15920
 26550.00000      0.15900
 26560.00000      0.15880
 26570.00000      0.15860
 26580.00000      0.15840
 26590.00000      0.15820
 26600.00000      0.15800
 26610.00000      0.15780
 26620.00000      0.15760
 26630.00000      0.15740
 26640.00000      0.15720
 26650.00000      0.15700
 26660.00000      0.15680
 26670.00000      0.15660
 26680.00000      0.15640
 26690.00000      0.15620
 26700.00000      0.15600
 26710.00000      0.15580
 26720.00000      0.15560
 26730.00000      0.15540
 26740.00000      0.15520
 26750.00000      0.15500
 26760.00000      0.15480
 26770.00000      0.15460
 26780.00000      0.15440
 26790.00000      0.15420
 26800.00000      0.15400
 26810.00000      0.15380
 26820.00000      0.15360
 26830.00000      0.15340
 26840.00000      0.15320
 26850.00000      0.15300
 26860.00000      0.15280
 26870.00000      0.15260
 26880.00000      0.15240
 26890.00000      0.15220
 26900.00000      0.15200
 26910.00000      0.15180
 26920.00000      0.15160
 26930.00000      0.15140
 26940.00000      0.15120
 26950.00000      0.15100
 26960.00000      0.15080
 26970.00000      0.15060
 26980.00000      0.15040
 26990.00000      0.15020
 27000.00000      0.15000
 27010.00000      0.14980
 27020.00000      0.14960
 27030.00000      0.14940
 27040.00000      0.14920
 27050.00000      0.14900
 27060.00000      0.14880
 27070.00000      0.14860
 27080.00000      0.14840
 27090.00000      0.14820
 27100.00000      0.14800
 27110.00000      0.14780
 27120.00000      0.14760
 27130.00000      0.14740
 27140.00000      0.14720
 27150.00000      0.14700
 27160.00000      0.14680
 27170.00000      0.14660
 27180.00000      0.14640
 27190.00000      0.14620
 27200.00000      0.14600
 27210.00000      0.14580
 27220.00000      0.14560
 27230.00000      0.14540
 27240.00000      0.14520
 27250.00000      0.14500
 27260.00000      0.14480
 27270.00000      0.14460
 27280.00000      0.14440
 27290.00000      0.14420
 27300.00000      0.14400
 27310.00000      0.14380
 27320.00000      0.14360
 27330.00000      0.14340
 27340.00000      0.14320
 27350.00000      0.14300
 27360.00000      0.14280
 27370.00000      0.14260
 27380.00000      0.14240
 27390.00000      0.14220
 27400.00000      0.14200
 27410.00000      0.14180
 27420.00000      0.14160
 27430.00000      0.14140
 27440.00000      0.14120
 27450.00000      0.14100
 27460.00000      0.14080
 27470.00000      0.14060
 27480.00000      0.14040
 27490.00000      0.14020
 27500.00000      0.14000
 27510.00000      0.13980
 27520.00000      0.13960
 27530.00000      0.13940
 27540.00000      0.13920
 27550.00000      0.13900
 27560.00000      0.13880
 27570.00000      0.13860
 27580.00000      0.13840
 27590.00000      0.13820
 27600.00000      0.13800
 27610.00000      0.13780
 27620.00000      0.13760
 27630.00000      0.13740
 27640.00000      0.13720
 27650.00000      0.13700
 27660.00000      0.13680
 27670.00000      0.13660
 27680.00000      0.13640
 27690.00000      0.13620
 27700.00000      0.13600
 27710.00000      0.13580
 27720.00000      0.13560
 27730.00000      0.13540
 27740.00000      0.13520
 27750.00000      0.13500
 27760.00000      0.13480
 27770.00000      0.13460
 27780.00000      0.13440
 27790.00000      0.13420
 27800.00000      0.13400
 27810.00000      0.13380
 27820.00000      0.13360
 27830.00000      0.13340
 27840.00000      0.13320
 27850.00000      0.13300
 27860.00000      0.13280
 27870.00000      0.13260
 27880.00000      0.13240
 27890.00000      0.13220
 27900.00000      0.13200
 27910.00000      0.13180
 27920.00000      0.13160
 27930.00000      0.13140
 27940.00000      0.13120
 27950.00000      0.13100
 27960.00000      0.13080
 27970.00000      0.13060
 27980.00000      0.13040
 27990.00000      0.13020
 28000.00000      0.13000
 28010.00000      0.12980
 28020.00000      0.12960
 28030.00000      0.12940
 28040.00000      0.12920
 28050.00000      0.12900
 28060.00000      0.12880
 28070.00000      0.12860
 28080.00000      0.12840
 28090.00000      0.12820
 28100.00000      0.12800
 28110.00000      0.12780
 28120.00000      0.12760
 28130.00000      0.12740
 28140.00000      0.12720
 28150.00000      0.12700
 28160.00000      0.12680
 28170.00000      0.12660
 28180.00000      0.12640
 28190.00000      0.12620
 28200.00000      0.12600
 28210.00000      0.12580
 28220.00000      0.12560
 28230.00000      0.12540
 28240.00000      0.12520
 28250.00000      0.12500
 28260.00000      0.12480
 28270.00000      0.12460
 28280.00000      0.12440
 28290.00000      0.12420
 28300.00000      0.12400
 28310.00000      0.12380
 28320.00000      0.12360
 28330.00000      0.12340
 28340.00000      0.12320
 28350.00000      0.12300
 28360.00000      0.12280
 28370.00000      0.12260
 28380.00000      0.12240
 28390.00000      0.12220
 28400.00000      0.12200
 28410.00000      0.12180
 28420.00000      0.12160
 28430.00000      0.12140
 28440.00000      0.12120
 28450.00000      0.12100
 28460.00000      0.12080
 28470.00000      0.12060
 28480.00000      0.12040
 28490.00000      0.12020
 28500.00000      0.12000
 28510.00000      0.11980
 28520.00000      0.11960
 28530.00000      0.11940
 28540.00000      0.11920
 28550.00000      0.11900
 28560.00000      0.11880
 28570.00000      0.11860
 28580.00000      0.11840
 28590.00000      0.11820
 28600.00000      0.11800
 28610.00000      0.11780
 28620.00000      0.11760
 28630.00000      0.11740
 28640.00000      0.11720
 28650.00000      0.11700
 28660.00000      0.11680
 28670.00000      0.11660
 28680.00000      0.11640
 28690.00000      0.11620
 28700.00000      0.11600
 28710.00000      0.11580
 28720.00000      0.11560
 28730.00000      0.11540
 28740.00000      0.11520
 28750.00000      0.11500
 28760.00000      0.11480
 28770.00000      0.11460
 28780.00000      0.11440
 28790.00000      0.11420
 28800.00000      0.11400
 28810.00000      0.11380
 28820.00000      0.11360
 28830.00000      0.11340
 28840.00000      0.11320
 28850.00000      0.11300
 28860.00000      0.11280
 28870.00000      0.11260
 28880.00000      0.11240
 28890.00000      0.11220
 28900.00000      0.11200
 28910.00000      0.11180
 28920.00000      0.11160
 28930.00000      0.11140
 28940.00000      0.11120
 28950.00000      0.11100
 28960.00000      0.11080
 28970.00000      0.11060
 28980.00000      0.11040
 28990.00000      0.11020
 29000.00000      0.11000
 29010.00000      0.10980
 29020.00000      0.10960
 29030.00000      0.10940
 29040.00000      0.10920
 29050.00000      0.10900
 29060.00000      0.10880
 29070.00000      0.10860
 29080.00000      0.10840
 29090.00000      0.10820
 29100.00000      0.10800
 29110.00000      0.10780
 29120.00000      0.10760
 29130.00000      0.10740
 29140.00000      0.10720
 29150.00000      0.10700
 29160.00000      0.10680
 29170.00000      0.10660
 29180.00000      0.10640
 29190.00000      0.10620
 29200.00000      0.10600
 29210.00000      0.10580
 29220.00000      0.10560
 29230.00000      0.10540
 29240.00000      0.10520
 29250.00000      0.10500
 29260.00000      0.10480
 29270.00000      0.10460
 29280.00000      0.10440
 29290.00000      0.10420
 29300.00000      0.10400
 29310.00000      0.10380
 29320.00000      0.10360
 29330.00000      0.10340
 29340.00000      0.10320
 29350.00000      0.10300
 29360.00000      0.10280
 29370.00000      0.10260
 29380.00000      0.10240
 29390.00000      0.10220
 29400.00000      0.10200
 29410.00000      0.10180
 29420.00000      0.10160
 29430.00000      0.10140
 29440.00000      0.10120
 29450.00000      0.10100
 29460.00000      0.10080
 29470.00000      0.10060
 29480.00000      0.10040
 29490.00000      0.10020
 29500.00000      0.10000
 29510.00000      0.09980
 29520.00000      0.09960
 29530.00000      0.09940
 29540.00000      0.09920
 29550.00000      0.09900
 29560.00000      0.09880
 29570.00000      0.09860
 29580.00000      0.09840
 29590.00000      0.09820
 29600.00000      0.09800
 29610.00000      0.09780
 29620.00000      0.09760
 29630.00000      0.09740
 29640.00000      0.09720
 29650.00000      0.09700
 29660.00000      0.09680
 29670.00000      0.09660
 29680.00000      0.09640
 29690.00000      0.09620
 29700.00000      0.09600
 29710.00000      0.09580
 29720.00000      0.09560
 29730.00000      0.09540
 29740.00000      0.09520
 29750.00000      0.09500
 29760.00000      0.09480
 29770.00000      0.09460
 29780.00000      0.09440
 29790.00000      0.09420
 29800.00000      0.09400
 29810.00000      0.09380
 29820.00000      0.09360
 29830.00000      0.09340
 29840.00000      0.09320
 29850.00000      0.09300
 29860.00000      0.09280
 29870.00000      0.09260
 29880.00000      0.09240
 29890.00000      0.09220
 29900.00000      0.09200
 29910.00000      0.09180
 29920.00000      0.09160
 29930.00000      0.09140
 29940.00000      0.09120
 29950.00000      0.09100
 29960.00000      0.09080
 29970.00000      0.09060
 29980.00000      0.09040
 29990.00000      0.09020
 30000.00000      0.09000
 30010.00000      0.08980
 30020.00000      0.08960
 30030.00000      0.08940
 30040.00000      0.08920
 30050.00000      0.08900
 30060.00000      0.08880
 30070.00000      0.08860
 30080.00000      0.08840
 30090.00000      0.08820
 30100.00000      0.08800
 30110.00000      0.08780
 30120.00000      0.08760
 30130.00000      0.08740
 30140.00000      0.08720
 30150.00000      0.08700
 30160.00000      0.08680
 30170.00000      0.08660
 30180.00000      0.08640
 30190.00000      0.08620
 30200.00000      0.08600
 30210.00000      0.08580
 30220.00000      0.08560
 30230.00000      0.08540
 30240.00000      0.08520
 30250.00000      0.08500
 30260.00000      0.08480
 30270.00000      0.08460
 30280.00000      0.08440
 30290.00000      0.08420
 30300.00000      0.08400
 30310.00000      0.08380
 30320.00000      0.08360
 30330.00000      0.08340
 30340.00000      0.08320
 30350.00000      0.08300
 30360.00000      0.08280
 30370.00000      0.08260
 30380.00000      0.08240
 30390.00000      0.08220
 30400.00000      0.08200
 30410.00000      0.08180
 30420.00000      0.08160
 30430.00000      0.08140
 30440.00000      0.08120
 30450.00000      0.08100
 30460.00000      0.08080
 30470.00000      0.08060
 30480.00000      0.08040
 30490.00000      0.08020
 30500.00000      0.08000
 30510.00000      0.07980
 30520.00000      0.07960
 30530.00000      0.07940
 30540.00000      0.07920
 30550.00000      0.07900
 30560.00000      0.07880
 30570.00000      0.07860
 30580.00000      0.07840
 30590.00000      0.07820
 30600.00000      0.07800
 30610.00000      0.07780
 30620.00000      0.07760
 30630.00000      0.07740
 30640.00000      0.07720
 30650.00000      0.07700
 30660.00000      0.07680
 30670.00000      0.07660
 30680.00000      0.07640
 30690.00000      0.07620
 30700.00000      0.07600
 30710.00000      0.07580
 30720.00000      0.07560
 30730.00000      0.07540
 30740.00000      0.07520
 30750.00000      0.07500
 30760.00000      0.07480
 30770.00000      0.07460
 30780.00000      0.07440
 30790.00000      0.07420
 30800.00000      0.07400
 30810.00000      0.07380
 30820.00000      0.07360
 30830.00000      0.07340
 30840.00000      0.07320
 30850.00000      0.07300
 30860.00000      0.07280
 30870.00000      0.07260
 30880.00000      0.07240
 30890.00000      0.07220
 30900.00000      0.07200
 30910.00000      0.07180
 30920.00000      0.07160
 30930.00000      0.07140
 30940.00000      0.07120
 30950.00000      0.07100
 30960.00000      0.07080
 30970.00000      0.07060
 30980.00000      0.07040
 30990.00000      0.07020
 31000.00000      0.07000
 31010.00000      0.06980
 31020.00000      0.06960
 31030.00000      0.06940
 31040.00000      0.06920
 31050.00000      0.06900
 31060.00000      0.06880
 31070.00000      0.06860
 31080.00000      0.06840
 31090.00000      0.06820
 31100.00000      0.06800
 31110.00000      0.06780
 31120.00000      0.06760
 31130.00000      0.06740
 31140.00000      0.06720
 31150.00000      0.06700
 31160.00000      0.06680
 31170.00000      0.06660
 31180.00000      0.06640
 31190.00000      0.06620
 31200.00000      0.06600
 31210.00000      0.06580
 31220.00000      0.06560
 31230.00000      0.06540
 31240.00000      0.06520
 31250.00000      0.06500
 31260.00000      0.06480
 31270.00000      0.06460
 31280.00000      0.06440
 31290.00000      0.06420
 31300.00000      0.06400
 31310.00000      0.06380
 31320.00000      0.06360
 31330.00000      0.06340
 31340.00000      0.06320
 31350.00000      0.06300
 31360.00000      0.06280
 31370.00000      0.06260
 31380.00000      0.06240
 31390.00000      0.06220
 31400.00000      0.06200
 31410.00000      0.06180
 31420.00000      0.06160
 31430.00000      0.06140
 31440.00000      0.06120
 31450.00000      0.06100
 31460.00000      0.06080
 31470.00000      0.06060
 31480.00000      0.06040
 31490.00000      0.06020
 31500.00000      0.06000
 31510.00000      0.05980
 31520.00000      0.05960
 31530.00000      0.05940
 31540.00000      0.05920
 31550.00000      0.05900
 31560.00000      0.05880
 31570.00000      0.05860
 31580.00000      0.05840
 31590.00000      0.05820
 31600.00000      0.05800
 31610.00000      0.05780
 31620.00000      0.05760
 31630.00000      0.05740
 31640.00000      0.05720
 31650.00000      0.05700
 31660.00000      0.05680
 31670.00000      0.05660
 31680.00000      0.05640
 31690.00000      0.05620
 31700.00000      0.05600
 31710.00000      0.05580
 31720.00000      0.05560
 31730.00000      0.05540
 31740.00000      0.05520
 31750.00000      0.05500
 31760.00000      0.05480
 31770.00000      0.05460
 31780.00000      0.05440
 31790.00000      0.05420
 31800.00000      0.05400
 31810.00000      0.05380
 31820.00000      0.05360
 31830.00000      0.05340
 31840.00000      0.05320
 31850.00000      0.05300
 31860.00000      0.05280
 31870.00000      0.05260
 31880.00000      0.05240
 31890.00000      0.05220
 31900.00000      0.05200
 31910.00000      0.05180
 31920.00000      0.05160
 31930.00000      0.05140
 31940.00000      0.05120
 31950.00000      0.05100
 31960.00000      0.05080
 31970.00000      0.05060
 31980.00000      0.05040
 31990.00000      0.05020
 32000.00000      0.05000
 32010.00000      0.04980
 32020.00000      0.04960
 32030.00000      0.04940
 32040.00000      0.04920
 32050.00000      0.04900
 32060.00000      0.04880
 32070.00000      0.04860
 32080.00000      0.04840
 32090.00000      0.04820
 32100.00000      0.04800
 32110.00000      0.04780
 32120.00000      0.04760
 32130.00000      0.04740
 32140.00000      0.04720
 32150.00000      0.04700
 32160.00000      0.04680
 32170.00000      0.04660
 32180.00000      0.04640
 32190.00000      0.04620
 32200.00000      0.04600
 32210.00000      0.04580
 32220.00000      0.04560
 32230.00000      0.04540
 32240.00000      0.04520
 32250.00000      0.04500
 32260.00000      0.04480
 32270.00000      0.04460
 32280.00000      0.04440
 32290.00000      0.04420
 32300.00000      0.04400
 32310.00000      0.04380
 32320.00000      0.04360
 32330.00000      0.04340
 32340.00000      0.04320
 32350.00000      0.04300
 32360.00000      0.04280
 32370.00000      0.04260
 32380.00000      0.04240
 32390.00000      0.04220
 32400.00000      0.04200
 32410.00000      0.04180
 32420.00000      0.04160
 32430.00000      0.04140
 32440.00000      0.04120
 32450.00000      0.04100
 32460.00000      0.04080
 32470.00000      0.04060
 32480.00000      0.04040
 32490.00000      0.04020
 32500.00000      0.04000
 32510.00000      0.03980
 32520.00000      0.03960
 32530.00000      0.03940
 32540.00000      0.03920
 32550.00000      0.03900
 32560.00000      0.03880
 32570.00000      0.03860
 32580.00000      0.03840
 32590.00000      0.03820
 32600.00000      0.03800
 32610.00000      0.03780
 32620.00000      0.03760
 32630.00000      0.03740
 32640.00000      0.03720
 32650.00000      0.03700
 32660.00000      0.03680
 32670.00000      0.03660
 32680.00000      0.03640
 32690.00000      0.03620
 32700.00000      0.03600
 32710.00000      0.03580
 32720.00000      0.03560
 32730.00000      0.03540
 32740.00000      0.03520
 32750.00000      0.03500
 32760.00000      0.03480
 32770.00000      0.03460
 32780.00000      0.03440
 32790.00000      0.03420
 32800.00000      0.03400
 32810.00000      0.03380
 32820.00000      0.03360
 32830.00000      0.03340
 32840.00000      0.03320
 32850.00000      0.03300
 32860.00000      0.03280
 32870.00000      0.03260
 32880.00000      0.03240
 32890.00000      0.03220
 32900.00000      0.03200
 32910.00000      0.03180
 32920.00000      0.03160
 32930.00000      0.03140
 32940.00000      0.03120
 32950.00000      0.03100
 32960.00000      0.03080
 32970.00000      0.03060
 32980.00000      0.03040
 32990.00000      0.03020
 33000.00000      0.03000
 33010.00000      0.02980
 33020.00000      0.02960
 33030.00000      0.02940
 33040.00000      0.02920
 33050.00000      0.02900
 33060.00000      0.02880
 33070.00000      0.02860
 33080.00000      0.02840
 33090.00000      0.02820
 33100.00000      0.02800
 33110.00000      0.02780
 33120.00000      0.02760
 33130.00000      0.02740
 33140.00000      0.02720
 33150.00000      0.02700
 33160.00000      0.02680
 33170.00000      0.02660
 33180.00000      0.02640
 33190.00000      0.02620
 33200.00000      0.02600
 33210.00000      0.02580
 33220.00000      0.02560
 33230.00000      0.02540
 33240.00000      0.02520
 33250.00000      0.02500
 33260.00000      0.02480
 33270.00000      0.02460
 33280.00000      0.02440
 33290.00000      0.02420
 33300.00000      0.02400
 33310.00000      0.02380
 33320.00000      0.02360
 33330.00000      0.02340
 33340.00000      0.02320
 33350.00000      0.02300
 33360.00000      0.02280
 33370.00000      0.02260
 33380.00000      0.02240
 33390.00000      0.02220
 33400.00000      0.02200
 33410.00000      0.02180
 33420.00000      0.02160
 33430.00000      0.02140
 33440.00000      0.02120
 33450.00000      0.02100
 33460.00000      0.02080
 33470.00000      0.02060
 33480.00000      0.02040
 33490.00000      0.02020
 33500.00000      0.02000
 33510.00000      0.01980
 33520.00000      0.01960
 33530.00000      0.01940
 33540.00000      0.01920
 33550.00000      0.01900
 33560.00000      0.01880
 33570.00000      0.01860
 33580.00000      0.01840
 33590.00000      0.01820
 33600.00000      0.01800
 33610.00000      0.01780
 33620.00000      0.01760
 33630.00000      0.01740
 33640.00000      0.01720
 33650.00000      0.01700
 33660.00000      0.01680
 33670.00000      0.01660
 33680.00000      0.01640
 33690.00000      0.01620
 33700.00000      0.01600
 33710.00000      0.01580
 33720.00000      0.01560
 33730.00000      0.01540
 33740.00000      0.01520
 33750.00000      0.01500
 33760.00000      0.01480
 33770.00000      0.01460
 33780.00000      0.01440
 33790.00000      0.01420
 33800.00000      0.01400
 33810.00000      0.01380
 33820.00000      0.01360
 33830.00000      0.01340
 33840.00000      0.01320
 33850.00000      0.01300
 33860.00000      0.01280
 33870.00000      0.01260
 33880.00000      0.01240
 33890.00000      0.01220
 33900.00000      0.01200
 33910.00000      0.01180
 33920.00000      0.01160
 33930.00000      0.01140
 33940.00000      0.01120
 33950.00000      0.01100
 33960.00000      0.01080
 33970.00000      0.01060
 33980.00000      0.01040
 33990.00000      0.01020
 34000.00000      0.01000
 34010.00000      0.00980
 34020.00000      0.00960
 34030.00000      0.00940
 34040.00000      0.00920
 34050.00000      0.00900
 34060.00000      0.00880
 34070.00000      0.00860
 34080.00000      0.00840
 34090.00000      0.00820
 34100.00000      0.00800
 34110.00000      0.00780
 34120.00000      0.00760
 34130.00000      0.00740
 34140.00000      0.00720
 34150.00000      0.00700
 34160.00000      0.00680
 34170.00000      0.00660
 34180.00000      0.00640
 34190.00000      0.00620
 34200.00000      0.00600
 34210.00000      0.00580
 34220.00000      0.00560
 34230.00000      0.00540
 34240.00000      0.00520
 34250.00000      0.00500
 34260.00000      0.00480
 34270.00000      0.00460
 34280.00000      0.00440
 34290.00000      0.00420
 34300.00000      0.00400
 34310.00000      0.00380
 34320.00000      0.00360
 34330.00000      0.00340
 34340.00000      0.00320
 34350.00000      0.00300
 34360.00000      0.00280
 34370.00000      0.00260
 34380.00000      0.00240
 34390.00000      0.00220
 34400.00000      0.00200
 34410.00000      0.00180
 34420.00000      0.00160
 34430.00000      0.00140
 34440.00000      0.00120
 34450.00000      0.00100
 34460.00000      0.00080
 34470.00000      0.00060
 34480.00000      0.00040
 34490.00000      0.00020
 34500.00000      0.00000
 34510.00000      0.00000
 34520.00000      0.00000
 34530.00000      0.00000
 34540.00000      0.00000
 34550.00000      0.00000
 34560.00000      0.00000
 34570.00000      0.00000
 34580.00000      0.00000
 34590.00000      0.00000
 34600.00000      0.00000
 34610.00000      0.00000
 34620.00000      0.00000
 34630.00000      0.00000
 34640.00000      0.00000
 34650.00000      0.00000
 34660.00000      0.00000
 34670.00000      0.00000
 34680.00000      0.00000
 34690.00000      0.00000
 34700.00000      0.00000
 34710.00000      0.00000
 34720.00000      0.00000
 34730.00000      0.00000
 34740.00000      0.00000
 34750.00000      0.00000
 34760.00000      0.00000
 34770.00000      0.00000
 34780.00000      0.00000
 34790.00000      0.00000
 34800.00000      0.00000
 34810.00000      0.00000
 34820.00000      0.00000
 34830.00000      0.00000
 34840.00000      0.00000
 34850.00000      0.00000
 34860.00000      0.00000
 34870.00000      0.00000
 34880.00000      0.00000
 34890.00000      0.00000
 34900.00000      0.00000
 34910.00000      0.00000
 34920.00000      0.00000
 34930.00000      0.00000
 34940.00000      0.00000
 34950.00000      0.00000
 34960.00000      0.00000
 34970.00000      0.00000
 34980.00000      0.00000
 34990.00000      0.00000
 35000.00000      0.00000
 35010.00000      0.00000
 35020.00000      0.00000
 35030.00000      0.00000
 35040.00000      0.00000
 35050.00000      0.00000
 35060.00000      0.00000
 35070.00000      0.00000
 35080.00000      0.00000
 35090.00000      0.00000
 35100.00000      0.00000
 35110.00000      0.00000
 35120.00000      0.00000
 35130.00000      0.00000
 35140.00000      0.00000
 35150.00000      0.00000
 35160.00000      0.00000
 35170.00000      0.00000
 35180.00000      0.00000
 35190.00000      0.00000
 35200.00000      0.00000
 35210.00000      0.00000
 35220.00000      0.00000
 35230.00000      0.00000
 35240.00000      0.00000
 35250.00000      0.00000
 35260.00000      0.00000
 35270.00000      0.00000
 35280.00000      0.00000
 35290.00000      0.00000
 35300.00000      0.00000
 35310.00000      0.00000
 35320.00000      0.00000
 35330.00000      0.00000
 35340.00000      0.00000
 35350.00000      0.00000
 35360.00000      0.00000
 35370.00000      0.00000
 35380.00000      0.00000
 35390.00000      0.00000
 35400.00000      0.00000
 35410.00000      0.00000
 35420.00000      0.00000
 35430.00000      0.00000
 35440.00000      0.00000
 35450.00000      0.00000
 35460.00000      0.00000
 35470.00000      0.00000
 35480.00000      0.00000
 35490.00000      0.00000
 35500.00000      0.00000
 35510.00000      0.00000
 35520.00000      0.00000
 35530.00000      0.00000
 35540.00000      0.00000
 35550.00000      0.00000
 35560.00000      0.00000
 35570.00000      0.00000
 35580.00000      0.00000
 35590.00000      0.00000
 35600.00000      0.00000
 35610.00000      0.00000
 35620.00000      0.00000
 35630.00000      0.00000
 35640.00000      0.00000
 35650.00000      0.00000
 35660.00000      0.00000
 35670.00000      0.00000
 35680.00000      0.00000
 35690.00000      0.00000
 35700.00000      0.00000
 35710.00000      0.00000
 35720.00000      0.00000
 35730.00000      0.00000
 35740.00000      0.00000
 35750.00000      0.00000
 35760.00000      0.00000
 35770.00000      0.00000
 35780.00000      0.00000
 35790.00000      0.00000
 35800.00000      0.00000
 35810.00000      0.00000
 35820.00000      0.00000
 35830.00000      0.00000
 35840.00000      0.00000
 35850.00000      0.00000
 35860.00000      0.00000
 35870.00000      0.00000
 35880.00000      0.00000
 35890.00000      0.00000
 35900.00000      0.00000
 35910.00000      0.00000
 35920.00000      0.00000
 35930.00000      0.00000
 35940.00000      0.00000
 35950.00000      0.00000
 35960.00000      0.00000
 35970.00000      0.00000
 35980.00000      0.00000
 35990.00000      0.00000
 36000.00000      0.00000
 36010.00000      0.00000
 36020.00000      0.00000
 36030.00000      0.00000
 36040.00000      0.00000
 36050.00000      0.00000
 36060.00000      0.00000
 36070.00000      0.00000
 36080.00000      0.00000
 36090.00000      0.00000
 36100.00000      0.00000
 36110.00000      0.00000
 36120.00000      0.00000
 36130.00000      0.00000
 36140.00000      0.00000
 36150.00000      0.00000
 36160.00000      0.00000
 36170.00000      0.00000
 36180.00000      0.00000
 36190.00000      0.00000
 36200.00000      0.00000
 36210.00000      0.00000
 36220.00000      0.00000
 36230.00000      0.00000
 36240.00000      0.00000
 36250.00000      0.00000
 36260.00000      0.00000
 36270.00000      0.00000
 36280.00000      0.00000
 36290.00000      0.00000
 36300.00000      0.00000
 36310.00000      0.00000
 36320.00000      0.00000
 36330.00000      0.00000
 36340.00000      0.00000
 36350.00000      0.00000
 36360.00000      0.00000
 36370.00000      0.00000
 36380.00000      0.00000
 36390.00000      0.00000
 36400.00000      0.00000
 36410.00000      0.00000
 36420.00000      0.00000
 36430.00000      0.00000
 36440.00000      0.00000
 36450.00000      0.00000
 36460.00000      0.00000
 36470.00000      0.00000
 36480.00000      0.00000
 36490.00000      0.00000
 36500.00000      0.00000
 36510.00000      0.00000
 36520.00000      0.00000
 36530.00000      0.00000
 36540.00000      0.00000
 36550.00000      0.00000
 36560.00000      0.00000
 36570.00000      0.00000
 36580.00000      0.00000
 36590.00000      0.00000
 36600.00000      0.00000
 36610.00000      0.00000
 36620.00000      0.00000
 36630.00000      0.00000
 36640.00000      0.00000
 36650.00000      0.00000
 36660.00000      0.00000
 36670.00000      0.00000
 36680.00000      0.00000
 36690.00000      0.00000
 36700.00000      0.00000
 36710.00000      0.00000
 36720.00000      0.00000
 36730.00000      0.00000
 36740.00000      0.00000
 36750.00000      0.00000
 36760.00000      0.00000
 36770.00000      0.00000
 36780.00000      0.00000
 36790.00000      0.00000
 36800.00000      0.00000
 36810.00000      0.00000
 36820.00000      0.00000
 36830.00000      0.00000
 36840.00000      0.00000
 36850.00000      0.00000
 36860.00000      0.00000
 36870.00000      0.00000
 36880.00000      0.00000
 36890.00000      0.00000
 36900.00000      0.00000
 36910.00000      0.00000
 36920.00000      0.00000
 36930.00000      0.00000
 36940.00000      0.00000
 36950.00000      0.00000
 36960.00000      0.00000
 36970.00000      0.00000
 36980.00000      0.00000
 36990.00000      0.00000
 37000.00000      0.00000
 37010.00000      0.00000
 37020.00000      0.00000
 37030.00000      0.00000
 37040.00000      0.00000
 37050.00000      0.00000
 37060.00000      0.00000
 37070.00000      0.00000
 37080.00000      0.00000
 37090.00000      0.00000
 37100.00000      0.00000
 37110.00000      0.00000
 37120.00000      0.00000
 37130.00000      0.00000
 37140.00000      0.00000
 37150.00000      0.00000
 37160.00000      0.00000
 37170.00000      0.00000
 37180.00000      0.00000
 37190.00000      0.00000
 37200.00000      0.00000
 37210.00000      0.00000
 37220.00000      0.00000
 37230.00000      0.00000
 37240.00000      0.00000
 37250.00000      0.00000
 37260.00000      0.00000
 37270.00000      0.00000
 37280.00000      0.00000
 37290.00000      0.00000
 37300.00000      0.00000
 37310.00000      0.00000
 37320.00000      0.00000
 37330.00000      0.00000
 37340.00000      0.00000
 37350.00000      0.00000
 37360.00000      0.00000
 37370.00000      0.00000
 37380.00000      0.00000
 37390.00000      0.00000
 37400.00000      0.00000
 37410.00000      0.00000
 37420.00000      0.00000
 37430.00000      0.00000
 37440.00000      0.00000
 37450.00000      0.00000
 37460.00000      0.00000
 37470.00000      0.00000
 37480.00000      0.00000
 37490.00000      0.00000
 37500.00000      0.00000
 37510.00000      0.00000
 37520.00000      0.00000
 37530.00000      0.00000
 37540.00000      0.00000
 37550.00000      0.00000
 37560.00000      0.00000
 37570.00000      0.00000
 37580.00000      0.00000
 37590.00000      0.00000
 37600.00000      0.00000
 37610.00000      0.00000
 37620.00000      0.00000
 37630.00000      0.00000
 37640.00000      0.00000
 37650.00000      0.00000
 37660.00000      0.00000
 37670.00000      0.00000
 37680.00000      0.00000
 37690.00000      0.00000
 37700.00000      0.00000
 37710.00000      0.00000
 37720.00000      0.00000
 37730.00000      0.00000
 37740.00000      0.00000
 37750.00000      0.00000
 37760.00000      0.00000
 37770.00000      0.00000
 37780.00000      0.00000
 37790.00000      0.00000
 37800.00000      0.00000
 37810.00000      0.00000
 37820.00000      0.00000
 37830.00000      0.00000
 37840.00000      0.00000
 37850.00000      0.00000
 37860.00000      0.00000
 37870.00000      0.00000
 37880.00000      0.00000
 37890.00000      0.00000
 37900.00000      0.00000
 37910.00000      0.00000
 37920.00000      0.00000
 37930.00000      0.00000
 37940.00000      0.00000
 37950.00000      0.00000
 37960.00000      0.00000
 37970.00000      0.00000
 37980.00000      0.00000
 37990.00000      0.00000
 38000.00000      0.00000
 38010.00000      0.00000
 38020.00000      0.00000
 38030.00000      0.00000
 38040.00000      0.00000
 38050.00000      0.00000
 38060.00000      0.00000
 38070.00000      0.00000
 38080.00000      0.00000
 38090.00000      0.00000
 38100.00000      0.00000
 38110.00000      0.00000
 38120.00000      0.00000
 38130.00000      0.00000
 38140.00000      0.00000
 38150.00000      0.00000
 38160.00000      0.00000
 38170.00000      0.00000
 38180.00000      0.00000
 38190.00000      0.00000
 38200.00000      0.00000
 38210.00000      0.00000
 38220.00000      0.00000
 38230.00000      0.00000
 38240.00000      0.00000
 38250.00000      0.00000
 38260.00000      0.00000
 38270.00000      0.00000
 38280.00000      0.00000
 38290.00000      0.00000
 38300.00000      0.00000
 38310.00000      0.00000
 38320.00000      0.00000
 38330.00000      0.00000
 38340.00000      0.00000
 38350.00000      0.00000
 38360.00000      0.00000
 38370.00000      0.00000
 38380.00000      0.00000
 38390.00000      0.00000
 38400.00000      0.00000
 38410.00000      0.00000
 38420.00000      0.00000
 38430.00000      0.00000
 38440.00000      0.00000
 38450.00000      0.00000
 38460.00000      0.00000
 38470.00000      0.00000
 38480.00000      0.00000
 38490.00000      0.00000
 38500.00000      0.00000
 38510.00000      0.00000
 38520.00000      0.00000
 38530.00000      0.00000
 38540.00000      0.00000
 38550.00000      0.00000
 38560.00000      0.00000
 38570.00000      0.00000
 38580.00000      0.00000
 38590.00000      0.00000
 38600.00000      0.00000
 38610.00000      0.00000
 38620.00000      0.00000
 38630.00000      0.00000
 38640.00000      0.00000
 38650.00000      0.00000
 38660.00000      0.00000
 38670.00000      0.00000
 38680.00000      0.00000
 38690.00000      0.00000
 38700.00000      0.00000
 38710.00000      0.00000
 38720.00000      0.00000
 38730.00000      0.00000
 38740.00000      0.00000
 38750.00000      0.00000
 38760.00000      0.00000
 38770.00000      0.00000
 38780.00000      0.00000
 38790.00000      0.00000
 38800.00000      0.00000
 38810.00000      0.00000
 38820.00000      0.00000
 38830.00000      0.00000
 38840.00000      0.00000
 38850.00000      0.00000
 38860.00000      0.00000
 38870.00000      0.00000
 38880.00000      0.00000
 38890.00000      0.00000
 38900.00000      0.00000
 38910.00000      0.00000
 38920.00000      0.00000
 38930.00000      0.00000
 38940.00000      0.00000
 38950.00000      0.00000
 38960.00000      0.00000
 38970.00000      0.00000
 38980.00000      0.00000
 38990.00000      0.00000
 39000.00000      0.00000
 39010.00000      0.00000
 39020.00000      0.00000
 39030.00000      0.00000
 39040.00000      0.00000
 39050.00000      0.00000
 39060.00000      0.00000
 39070.00000      0.00000
 39080.00000      0.00000
 39090.00000      0.00000
 39100.00000      0.00000
 39110.00000      0.00000
 39120.00000      0.00000
 39130.00000      0.00000
 39140.00000      0.00000
 39150.00000      0.00000
 39160.00000      0.00000
 39170.00000      0.00000
 39180.00000      0.00000
 39190.00000      0.00000
 39200.00000      0.00000
 39210.00000      0.00000
 39220.00000      0.00000
 39230.00000      0.00000
 39240.00000      0.00000
 39250.00000      0.00000
 39260.00000      0.00000
 39270.00000      0.00000
 39280.00000      0.00000
 39290.00000      0.00000
 39300.00000      0.00000
 39310.00000      0.00000
 39320.00000      0.00000
 39330.00000      0.00000
 39340.00000      0.00000
 39350.00000      0.00000
 39360.00000      0.00000
 39370.00000      0.00000
 39380.00000      0.00000
 39390.00000      0.00000
 39400.00000      0.00000
 39410.00000      0.00000
 39420.00000      0.00000
 39430.00000      0.00000
 39440.00000      0.00000
 39450.00000      0.00000
 39460.00000      0.00000
 39470.00000      0.00000
 39480.00000      0.00000
 39490.00000      0.00000
 39500.00000      0.00000
 39510.00000      0.00000
 39520.00000      0.00000
 39530.00000      0.00000
 39540.00000      0.00000
 39550.00000      0.00000
 39560.00000      0.00000
 39570.00000      0.00000
 39580.00000      0.00000
 39590.00000      0.00000
 39600.00000      0.00000
 39610.00000      0.00000
 39620.00000      0.00000
 39630.00000      0.00000
 39640.00000      0.00000
 39650.00000      0.00000
 39660.00000      0.00000
 39670.00000      0.00000
 39680.00000      0.00000
 39690.00000      0.00000
 39700.00000      0.00000
 39710.00000      0.00000
 39720.00000      0.00000
 39730.00000      0.00000
 39740.00000      0.00000
 39750.00000      0.00000
 39760.00000      0.00000
 39770.00000      0.00000
 39780.00000      0.00000
 39790.00000      0.00000
 39800.00000      0.00000
 39810.00000      0.00000
 39820.00000      0.00000
 39830.00000      0.00000
 39840.00000      0.00000
 39850.00000      0.00000
 39860.00000      0.00000
 39870.00000      0.00000
 39880.00000      0.00000
 39890.00000      0.00000
 39900.00000      0.00000
 39910.00000      0.00000
 39920.00000      0.00000
 39930.00000      0.00000
 39940.00000      0.00000
 39950.00000      0.00000
 39960.00000      0.00000
 39970.00000      0.00000
 39980.00000      0.00000
 39990.00000      0.00000
 40000.00000      0.00000
 40010.00000      0.00000
 40020.00000      0.00000
 40030.00000      0.00000
 40040.00000      0.00000
 40050.00000      0.00000
 40060.00000      0.00000
 40070.00000      0.00000
 40080.00000      0.00000
 40090.00000      0.00000
 40100.00000      0.00000
 40110.00000      0.00000
 40120.00000      0.00000
 40130.00000      0.00000
 40140.00000      0.00000
 40150.00000      0.00000
 40160.00000      0.00000
 40170.00000      0.00000
 40180.00000      0.00000
 40190.00000      0.00000
 40200.00000      0.00000
 40210.00000      0.00000
 40220.00000      0.00000
 40230.00000      0.00000
 40240.00000      0.00000
 40250.00000      0.00000
 40260.00000      0.00000
 40270.00000      0.00000
 40280.00000      0.00000
 40290.00000      0.00000
 40300.00000      0.00000
 40310.00000      0.00000
 40320.00000      0.00000
 40330.00000      0.00000
 40340.00000      0.00000
 40350.00000      0.00000
 40360.00000      0.00000
 40370.00000      0.00000
 40380.00000      0.00000
 40390.00000      0.00000
 40400.00000      0.00000
 40410.00000      0.00000
 40420.00000      0.00000
 40430.00000      0.00000
 40440.00000      0.00000
 40450.00000      0.00000
 40460.00000      0.00000
 40470.00000      0.00000
 40480.00000      0.00000
 40490.00000      0.00000
 40500.00000      0.00000
 40510.00000      0.00000
 40520.00000      0.00000
 40530.00000      0.00000
 40540.00000      0.00000
 40550.00000      0.00000
 40560.00000      0.00000
 40570.00000      0.00000
 40580.00000      0.00000
 40590.00000      0.00000
 40600.00000      0.00000
 1000000000      0.00000